Time,Phi (degrees),Theta (degrees),Yaw (degrees)
0.01200,-0.50408,-0.95051,-6.82214
0.03400,-1.21780,-2.45398,-19.08625
0.04600,-1.46774,-3.08734,-25.36661
0.06800,-1.85468,-4.08210,-36.12721
0.09000,-2.21173,-4.83693,-45.76791
0.10200,-2.34545,-5.19316,-50.30363
0.12400,-2.74478,-5.84153,-57.57820
0.13600,-2.96808,-6.00761,-60.89793
0.15800,-3.30028,-6.39493,-66.10918
0.17000,-3.40917,-6.61078,-68.46442
0.19200,-3.47205,-6.79371,-72.35664
0.20400,-3.40169,-6.94346,-74.17329
0.22600,-3.52061,-7.03515,-77.23638
0.24800,-3.50726,-7.11012,-79.73307
0.26000,-3.52012,-7.21710,-80.53565
0.28200,-3.67698,-7.30054,-82.15770
0.29400,-3.73421,-7.30647,-83.00328
0.31600,-3.69110,-7.49431,-84.16722
0.32800,-3.64573,-7.35481,-84.62533
0.35000,-3.40280,-7.26522,-85.10583
0.37200,-3.36824,-7.31786,-85.54221
0.38400,-3.45100,-7.46303,-85.81610
0.40600,-3.61336,-7.61406,-85.90438
0.41800,-3.63485,-7.68190,-86.06046
0.44000,-3.57738,-7.97038,-86.23940
0.45200,-3.59605,-8.03423,-86.24479
0.47400,-3.61501,-8.19800,-86.86409
0.49600,-3.58092,-8.26098,-86.97720
0.50800,-3.55650,-8.15272,-87.05377
0.53000,-3.54503,-8.06145,-86.80367
0.54200,-3.50203,-8.01076,-87.09125
0.56400,-3.47882,-7.81311,-87.50520
0.57600,-3.39666,-7.76913,-87.49365
0.59800,-3.36070,-7.56478,-87.78201
0.61000,-3.38992,-7.55880,-87.81538
0.63200,-3.49564,-7.48641,-87.70559
0.65400,-3.60601,-7.39859,-87.75716
0.66600,-3.68965,-7.44051,-87.93906
0.68800,-3.51258,-7.78707,-88.08870
0.70000,-3.65627,-7.77610,-87.94013
0.72200,-3.84462,-7.90434,-87.40422
0.73400,-3.80742,-7.92637,-87.30147
0.75600,-3.61184,-8.01962,-87.52100
0.77800,-3.35806,-8.01185,-87.39037
0.79000,-3.32672,-7.92347,-87.39931
0.81200,-3.27852,-7.91296,-87.35044
0.82400,-3.18088,-8.07394,-87.35420
0.84600,-3.05300,-7.97957,-87.55007
0.85800,-3.01659,-7.93181,-87.49524
0.88000,-2.95393,-7.84424,-87.51273
0.89200,-2.92643,-7.90015,-87.59679
0.91400,-3.06988,-7.78134,-87.45621
0.93600,-3.20228,-7.86126,-87.44511
0.94800,-3.27888,-7.98715,-87.59845
0.97000,-3.28756,-8.03154,-87.79500
0.98200,-3.33681,-8.03769,-87.85708
1.00400,-3.41887,-8.10699,-87.74810
1.01600,-3.40292,-8.10983,-87.75680
1.03800,-3.41114,-8.14920,-88.18490
1.06000,-3.53945,-8.11292,-88.37020
1.07200,-3.55073,-8.14697,-88.42257
1.09900,-3.50584,-8.35611,-88.38426
1.11100,-3.50901,-8.32552,-88.35612
1.12300,-3.47859,-8.40663,-88.49467
1.14500,-3.36448,-8.37567,-88.58081
1.15700,-3.27489,-8.32665,-88.48283
1.17900,-3.12625,-8.29670,-88.29579
1.20100,-2.74755,-8.11088,-88.82301
1.21300,-2.70775,-8.18158,-88.84573
1.23500,-3.30304,-7.99196,-88.63076
1.24700,-3.24697,-8.08969,-88.51337
1.26900,-3.12106,-8.36613,-88.77701
1.28100,-3.07803,-8.52163,-89.06718
1.30300,-2.85937,-8.74788,-89.20521
1.32500,-2.80601,-8.47154,-89.17708
1.33700,-2.69318,-8.40672,-89.18532
1.35900,-2.56163,-8.24106,-88.98311
1.37100,-2.56981,-8.35346,-88.85681
1.39300,-2.89848,-8.16210,-88.60416
1.40500,-2.99019,-8.10731,-88.44801
1.42700,-3.05106,-7.91387,-88.71362
1.43928,-2.96124,-7.46931,-88.48025
1.46100,-2.75505,-6.95834,-88.95352
1.48300,-2.51030,-6.73412,-88.86886
1.49500,-2.44468,-6.32859,-88.89554
1.51700,-2.38078,-6.17514,-88.94471
1.52900,-2.33492,-6.07586,-88.97701
1.55100,-2.12923,-5.70655,-89.02223
1.56300,-2.04419,-4.84663,-89.27627
1.58500,-1.95850,-2.11966,-89.68552
1.60700,-1.23129,-2.50300,-89.79617
1.61900,-0.78253,-2.84970,-89.20626
1.64100,-0.30582,-3.61938,-87.64359
1.65300,-0.15912,-4.63246,-86.77866
1.67500,-0.21766,-6.79335,-85.37489
1.68700,-0.21301,-7.73101,-85.04877
1.70900,-0.06636,-9.27019,-85.12937
1.73100,0.37539,-9.90312,-85.30782
1.74300,0.51328,-9.61053,-85.54630
1.76500,0.80832,-9.19226,-85.54727
1.77700,0.90521,-9.06187,-85.66954
1.79900,0.84844,-8.54911,-85.67995
1.81100,0.86882,-8.31605,-85.79707
1.83300,1.04281,-8.54729,-85.55229
1.84500,1.02017,-8.63774,-85.59480
1.86700,1.05004,-8.77536,-85.72297
1.88900,1.03545,-8.55324,-86.06280
1.90100,1.08078,-8.44961,-86.23305
1.92300,1.23785,-8.65541,-86.57159
1.93500,1.20357,-8.64772,-86.56749
1.95700,1.11787,-8.75482,-86.61942
1.96900,1.06941,-8.91473,-86.71990
1.99100,0.93513,-9.13249,-86.71726
2.01300,0.91147,-9.07111,-86.82751
2.02500,0.88736,-9.02788,-86.92117
2.04700,0.81065,-8.97745,-87.30527
2.05900,0.70875,-9.08711,-87.40820
2.08100,0.51308,-8.95856,-87.87566
2.09300,0.47457,-9.03328,-87.90894
2.11500,0.30151,-9.44369,-87.81342
2.13700,0.15204,-9.55709,-87.63172
2.14900,0.06143,-9.53432,-87.84068
2.17100,0.04537,-9.60540,-88.07433
2.18300,0.05859,-9.84955,-87.95474
2.20500,-0.03544,-10.08678,-87.89129
2.21700,-0.06263,-9.99899,-87.88300
2.23900,-0.05936,-9.88809,-88.03875
2.25100,-0.08946,-9.91946,-88.04889
2.27300,-0.11486,-10.07926,-88.20083
2.29500,-0.10775,-10.00970,-88.13509
2.30700,-0.11696,-9.96039,-88.25175
2.32900,-0.04183,-9.94758,-88.46762
2.34100,-0.05212,-9.84726,-88.45940
2.36300,-0.03616,-9.73497,-88.44099
2.37500,-0.04527,-9.74241,-88.45100
2.39700,-0.01778,-9.78873,-88.57660
2.41900,0.01185,-9.90498,-88.69929
2.43100,-0.00372,-9.96086,-88.65065
2.45300,-0.02805,-10.19409,-88.65990
2.46500,-0.03869,-10.33268,-88.68781
2.48700,-0.06638,-10.49061,-88.59436
2.49900,-0.08580,-10.45887,-88.62086
2.52100,-0.05843,-10.33501,-88.80184
2.54300,-0.07808,-10.06882,-88.71816
2.55500,-0.07598,-9.92200,-88.78947
2.57700,-0.16011,-9.72155,-88.85238
2.58900,-0.19952,-9.71464,-88.82943
2.61100,-0.27320,-9.90311,-88.79722
2.62300,-0.33635,-10.13024,-88.72526
2.64500,-0.49352,-10.59568,-88.64973
2.65700,-0.61850,-10.83488,-88.61991
2.67900,-0.73782,-11.35773,-88.80700
2.70100,-0.83102,-11.88133,-88.88297
2.71300,-0.87212,-12.02486,-88.96198
2.73500,-0.84517,-12.19743,-89.30850
2.74700,-0.86258,-12.28696,-89.32967
2.76900,-0.94358,-12.34208,-89.40674
2.78100,-0.94769,-12.37221,-89.47776
2.80300,-0.89864,-12.30597,-89.57176
2.82500,-0.90892,-12.25015,-89.75230
2.83700,-0.91640,-12.19941,-89.78452
2.85900,-0.90521,-11.96517,-89.81769
2.87100,-0.90337,-11.90380,-89.82835
2.89300,-0.94787,-11.92391,-89.92485
2.90500,-0.95048,-11.92032,-89.98116
2.92700,-0.93883,-11.95231,-89.93931
2.93900,-0.93729,-11.92280,-90.00246
2.96100,-0.92578,-11.80569,-90.16152
2.98300,-0.94052,-11.58800,-90.21906
2.99500,-0.91860,-11.40248,-90.28742
3.01700,-0.89849,-11.28234,-90.35687
3.02900,-0.89919,-11.19783,-90.37524
3.05100,-0.95267,-11.14020,-90.39786
3.06300,-0.96455,-11.05600,-90.38367
3.08500,-0.96905,-10.85225,-90.48002
3.10200,-1.00664,-10.82819,-90.43942
3.12400,-1.04418,-10.80325,-90.40953
3.13600,-1.08697,-10.85679,-90.46765
3.15800,-1.20014,-10.87387,-90.51523
3.17000,-1.34753,-11.20689,-90.53910
3.19200,-2.11390,-15.45723,-90.93281
3.20400,-3.36022,-20.52554,-91.70605
3.22600,-6.66994,-39.58614,-95.42559
3.24800,-10.44044,-47.61612,-99.93192
3.26000,-12.74656,-42.69065,-102.13117
3.28200,-14.66461,-21.17834,-101.76099
3.29400,-15.60083,-9.10737,-100.43921
3.31600,-16.64922,3.74892,-98.72731
3.33800,-17.57052,9.96402,-97.37987
3.35000,-18.59589,13.66344,-95.74818
3.37200,-22.71815,24.51954,-89.41444
3.38400,-26.88948,31.76806,-83.93842
3.40600,-38.06559,41.70194,-71.72386
3.41800,-42.80830,42.17207,-67.42107
3.44000,-45.90826,34.86880,-67.15725
3.45200,-47.77919,29.30392,-67.71657
3.47400,-53.91352,19.66079,-67.44852
3.48600,-58.17854,14.50979,-68.10964
3.50800,-66.90727,4.73738,-75.54007
3.53000,-77.56797,-2.96952,-91.45984
3.54200,-84.24906,-4.23759,-102.71980
3.56400,-94.75471,-0.46239,-120.52375
3.57600,-98.84892,3.00086,-125.45655
3.59800,-105.09014,7.55644,-123.21474
3.61000,-108.89217,7.66805,-116.40730
3.63200,-116.11707,2.74290,-98.69902
3.65400,-121.70184,-5.93426,-82.32648
3.66600,-124.34987,-10.31930,-76.68697
3.68800,-130.81320,-14.13225,-74.75737
3.70000,-135.69052,-12.81683,-77.35690
3.72200,-145.39290,-4.14375,-84.81012
3.74400,-153.96378,8.27057,-90.50405
3.75600,-158.24016,14.43351,-91.73131
3.77800,-166.04324,20.69284,-90.52756
3.79000,-170.15884,20.79711,-88.81567
3.81200,-176.63205,16.77166,-85.67627
3.82400,-179.50284,13.84629,-84.38802
3.84600,176.02829,9.26095,-82.72517
3.85800,173.80345,7.68244,-82.02917
3.88000,169.92137,6.67242,-80.84054
3.89200,167.87146,6.98685,-80.11189
3.91400,164.24113,8.58004,-78.52880
3.93600,160.83380,10.53477,-76.66822
3.94800,159.18481,11.56406,-75.56828
3.97000,156.82164,13.25262,-73.57475
3.98200,156.06078,14.10556,-72.62174
4.00400,155.99812,15.77185,-71.38431
4.02600,157.67523,17.79983,-70.99206
4.03800,159.78558,19.20632,-71.45364
4.06000,166.50069,22.28153,-74.24847
4.07200,172.15134,23.89648,-77.28219
4.09400,-173.66856,25.32356,-85.70631
4.10600,-163.83859,24.63804,-91.52702
4.12800,-143.07553,19.41359,-102.72549
4.14000,-130.65303,13.98629,-107.87751
4.16200,-107.65487,1.30693,-112.58276
4.18400,-86.48536,-7.95821,-112.48122
4.19600,-78.08666,-9.42785,-110.42973
4.21800,-63.27983,-5.72192,-99.59534
4.23000,-55.02322,0.67083,-90.86831
4.25200,-47.67897,24.95027,-65.58376
4.26400,-56.99656,27.52997,-43.63949
4.28600,-84.83203,15.11215,0.18234
4.30800,-83.26176,-4.38674,0.08553
4.32000,-87.92196,-14.57114,-23.71251
4.34200,-108.99886,-10.43538,-88.40691
4.35400,-111.27602,-4.73115,-115.85440
4.37600,-99.41049,-8.16061,-129.25345
4.38800,-87.71135,-11.34599,-137.66907
4.41000,-73.76551,-23.39961,-114.85184
4.42200,-66.34074,-21.92401,-92.30231
4.44400,-66.27814,-17.64255,-93.22417
4.46600,-75.06697,-25.81894,-120.61010
4.47800,-73.72892,-30.06501,-133.88492
4.50000,-63.12690,-32.12198,-136.63956
4.51200,-54.35539,-26.51229,-128.51227
4.53400,-43.40408,-5.60804,-108.65047
4.54600,-43.29897,6.97706,-91.40044
4.56800,-55.86702,26.45138,-53.04368
4.59000,-86.90508,21.83295,-13.79139
4.60200,-96.34412,20.99022,-6.32095
4.62400,-105.34692,17.15042,-14.24570
4.63600,-100.86768,10.88148,-21.53107
4.65800,-94.99941,-2.80374,-24.39240
4.67000,-99.02054,-8.20005,-25.25732
4.69200,-108.48280,-14.63616,-39.11724
4.71400,-117.58121,-15.83717,-64.72198
4.72600,-122.27644,-14.59382,-75.63813
4.74800,-132.86441,-9.50808,-80.11420
4.76000,-138.12555,-2.07992,-81.71610
4.78200,-143.84447,20.34015,-82.62218
4.79400,-139.85960,34.38287,-83.10777
4.81600,-108.61063,47.81485,-93.93584
4.82800,-101.01076,48.24464,-89.56798
4.85000,-99.22873,42.98372,-63.12380
4.87200,-101.40205,36.66007,-40.16632
4.88400,-103.10481,33.41110,-26.27296
4.90600,-109.37151,24.02114,5.13121
4.91800,-113.66836,14.75420,23.60465
4.94000,-116.20983,-7.79742,49.10687
4.95200,-113.60188,-18.01982,52.79213
4.97400,-107.17970,-26.28659,90.32542
4.99600,-110.07864,-29.27622,110.33495
5.00800,-115.93884,-28.44312,113.14256
5.03000,-131.26836,-21.66378,110.66258
5.04200,-137.99532,-12.27062,103.07937
5.06400,-146.32738,10.29170,101.34611
5.07600,-142.55684,22.16220,78.76362
5.10300,-116.77559,27.17528,28.17468
5.11500,-113.01756,27.66133,18.82292
5.13700,-109.86805,25.14683,13.64926
5.14900,-108.97771,24.06016,13.20415
5.17100,-106.83150,22.21607,13.59363
5.18300,-105.97913,20.50883,14.68514
5.20500,-107.11903,15.90826,17.89089
5.21700,-108.47053,14.13206,17.62424
5.23900,-108.63964,13.61311,10.94048
5.25100,-106.04633,14.29798,4.82542
5.27300,-97.48131,14.72075,-6.43712
5.29500,-88.98668,13.82137,-13.72596
5.30700,-85.29691,13.27667,-15.26990
5.32900,-79.59300,12.35903,-16.26379
5.34100,-76.51546,12.12007,-17.20703
5.36300,-70.17180,11.27195,-20.20714
5.38500,-63.91447,10.34380,-24.32027
5.39700,-60.94518,10.05860,-27.00314
5.41900,-56.63139,10.01890,-32.99166
5.43100,-55.29245,10.68512,-36.84034
5.45300,-54.54721,13.19367,-43.25982
5.46500,-55.80040,15.29501,-44.59314
5.48700,-62.98243,19.78283,-42.53847
5.49900,-67.68015,20.77156,-42.81059
5.52100,-71.91705,19.11209,-55.49730
5.53300,-70.32957,15.77776,-69.37489
5.55500,-64.02823,4.60058,-93.35687
5.57700,-58.14392,-2.50705,-99.69215
5.58900,-55.70844,-2.26321,-93.92558
5.61100,-53.36387,2.41213,-76.70183
5.62300,-52.18066,5.15525,-69.64368
5.64500,-49.98180,10.01550,-60.84713
5.66700,-49.34658,15.65123,-54.19482
5.67900,-50.56859,19.11684,-50.12805
5.70100,-55.50602,24.94995,-42.54993
5.71300,-58.86434,27.29767,-39.11589
5.73500,-65.51215,30.10686,-34.41204
5.74700,-69.01256,30.68933,-32.88754
5.76900,-74.84885,30.17389,-31.63253
5.78100,-77.59569,29.38737,-31.73527
5.80300,-81.90031,27.31252,-33.18937
5.82500,-84.88617,24.59850,-35.77126
5.83700,-85.64796,22.88018,-37.43936
5.85900,-86.20049,19.25639,-39.18855
5.87100,-86.61588,17.19904,-38.86797
5.89300,-87.93124,13.05040,-36.12369
5.90500,-88.87874,10.78923,-33.99167
5.92700,-90.78959,6.42482,-29.78806
5.93900,-91.85566,4.28758,-28.13196
5.96100,-94.20513,1.02745,-26.05713
5.98300,-97.29442,-1.13788,-26.46029
5.99500,-99.40805,-1.52305,-27.66190
6.01700,-103.84934,-0.75628,-31.74644
6.02900,-106.19259,0.33801,-33.38665
6.05100,-110.16352,2.87149,-34.43005
6.07300,-113.49271,4.97881,-32.74317
6.08500,-114.98141,5.37961,-30.08585
6.10700,-117.37216,4.13990,-23.74221
6.11900,-118.38851,2.47449,-19.82113
6.14100,-119.86596,-1.61113,-15.12160
6.15300,-120.50491,-3.51033,-14.63120
6.17500,-121.83604,-5.54344,-18.23537
6.18700,-122.70522,-5.58091,-21.56229
6.20900,-124.57359,-3.75115,-30.43808
6.23100,-126.31229,-0.55223,-39.17505
6.24300,-127.11252,1.39827,-42.56490
6.26500,-128.29439,4.52591,-45.96337
6.27700,-128.81108,5.53437,-46.23831
6.29900,-129.62923,5.88099,-44.86829
6.31100,-129.94315,5.50050,-43.49235
6.33300,-130.22285,4.31107,-41.16496
6.34500,-130.16762,3.86052,-40.73772
6.36700,-129.90434,3.51893,-41.39650
6.38900,-129.26862,3.85941,-42.95058
6.40100,-128.70064,4.39362,-44.34171
6.42300,-127.08158,5.75040,-47.46183
6.43500,-125.94370,6.54318,-49.50183
6.45700,-123.29302,7.91101,-53.62080
6.46900,-121.49257,8.51998,-55.75364
6.49100,-117.41843,9.24044,-59.17128
6.51300,-112.62746,9.29750,-62.71962
6.52500,-110.25464,9.12267,-64.16692
6.54700,-104.81924,9.29746,-66.87896
6.55900,-101.47518,9.10785,-67.84603
6.58100,-94.92635,7.88067,-67.45375
6.59300,-91.33121,7.06731,-66.01972
6.61500,-84.41453,6.42977,-61.20629
6.63700,-77.96001,7.59160,-54.54224
6.64900,-75.04745,9.46712,-49.95173
6.67100,-71.69051,15.03012,-39.90144
6.68300,-71.29362,18.55757,-34.20646
6.70500,-72.63900,24.35067,-25.40692
6.71700,-73.62679,26.44683,-22.95851
6.73900,-73.76270,28.20878,-25.17180
6.75100,-72.22419,27.87353,-30.74862
6.77300,-66.52611,23.77401,-47.91302
6.79500,-60.76962,15.56465,-67.31758
6.80700,-58.57129,10.39439,-75.96217
6.82900,-56.27657,3.14861,-84.69609
6.84100,-55.35585,1.30868,-85.52043
6.86300,-53.22244,1.27726,-82.94324
6.87500,-51.87687,2.76676,-80.35213
6.89700,-49.63792,7.92060,-74.42692
6.91900,-48.47905,14.88117,-67.25182
6.93100,-48.53301,19.09169,-63.01402
6.95300,-49.85405,26.47273,-55.44657
6.96500,-51.02694,29.99207,-51.84274
6.98700,-53.97179,35.67736,-45.65470
6.99900,-55.93615,38.15955,-42.59624
7.02100,-59.55961,41.10592,-38.17208
7.03300,-61.15752,41.71677,-36.69571
7.05500,-63.35284,41.51323,-35.24472
7.07700,-65.44904,40.38088,-34.03195
7.08900,-66.74910,39.32222,-33.16998
7.10600,-68.88790,37.34930,-31.66408
7.12800,-71.76991,34.28353,-29.65065
7.14000,-73.21789,32.23672,-29.04881
7.16200,-75.53381,27.72325,-29.52178
7.18400,-77.65411,22.80833,-31.96562
7.19600,-78.82813,20.14322,-34.38198
7.21800,-81.18520,15.53111,-40.85988
7.23000,-82.73519,13.32516,-45.18922
7.25200,-86.25645,10.18962,-53.41264
7.26400,-88.40900,9.11234,-57.12455
7.28600,-92.50032,8.06158,-61.66644
7.29800,-94.67164,7.72209,-62.42266
7.32000,-98.43506,6.84426,-60.36508
7.34200,-101.93761,5.00211,-55.21655
7.35400,-103.62364,3.35037,-51.42282
7.37600,-106.17402,-0.38425,-44.66685
7.38800,-107.36401,-2.39905,-42.14594
7.41000,-109.70119,-5.51159,-40.23100
7.42200,-111.24448,-6.69063,-40.56921
7.44400,-114.75420,-7.81426,-43.23765
7.46600,-118.83643,-7.95343,-47.38205
7.47800,-121.22737,-7.63100,-49.94801
7.50000,-125.67190,-6.58884,-54.45550
7.51200,-127.99245,-5.94015,-56.58818
7.53400,-131.95787,-4.79129,-59.69199
7.54600,-134.12396,-4.31821,-60.86111
7.56800,-137.63556,-3.62098,-62.50048
7.59000,-140.64647,-3.08139,-63.73159
7.60200,-142.01561,-2.83426,-64.24631
7.62400,-144.03444,-2.37581,-65.00889
7.63600,-144.85834,-2.06830,-65.38687
7.65800,-145.84990,-1.37450,-65.98089
7.67000,-146.09581,-0.94716,-66.24377
7.69200,-145.95033,-0.21129,-66.57802
7.70400,-145.51950,0.07951,-66.64770
7.72600,-143.99925,0.25967,-66.49760
7.74800,-141.74988,-0.13174,-65.90376
7.76000,-140.12781,-0.66859,-65.25291
7.78200,-136.43031,-2.00465,-63.49833
7.79400,-134.06717,-2.82165,-62.25348
7.81600,-129.21072,-4.24117,-59.54676
7.83800,-123.92313,-5.36042,-56.25841
7.85000,-120.91487,-5.78883,-54.16265
7.87200,-115.42475,-6.15507,-49.79821
7.88400,-112.56900,-6.05559,-47.21433
7.90600,-107.87428,-5.24574,-42.60763
7.91800,-105.73157,-4.41633,-40.59905
7.94000,-102.63128,-2.25344,-38.76994
7.95200,-101.31014,-0.72085,-39.19193
7.97400,-99.21152,2.51226,-42.96451
7.99600,-96.80562,5.76599,-49.38040
8.00800,-95.18789,7.28633,-53.55178
8.03000,-91.78825,9.18998,-60.50882
8.04200,-89.84426,9.74967,-63.06113
8.06400,-86.33964,10.36969,-64.90053
8.07600,-84.53363,10.75520,-64.47466
8.09800,-81.45499,11.98319,-61.73541
8.11000,-79.96433,13.01245,-59.54565
8.13200,-77.69480,15.35799,-55.15040
8.15400,-75.87050,18.07920,-51.01210
8.16600,-75.13272,19.66772,-48.99457
8.18800,-74.21214,22.52040,-45.83206
8.20000,-73.91025,23.97159,-44.41832
8.22200,-73.74789,26.36506,-42.24202
8.23400,-73.80511,27.40620,-41.27311
8.25600,-73.96724,28.67742,-40.08110
8.27800,-74.29034,29.36092,-39.24003
8.29000,-74.52863,29.38100,-38.96653
8.31200,-74.91903,28.71952,-38.99548
8.32400,-75.21630,28.05624,-39.17970
8.34600,-75.83738,26.32076,-39.85957
8.35800,-76.27847,25.14644,-40.34013
8.38000,-77.48249,22.71132,-41.29089
8.39200,-78.28231,21.24902,-41.95712
8.41400,-80.00019,18.42559,-43.74054
8.43600,-82.06308,15.67584,-46.12367
8.44800,-83.36408,14.28535,-47.74406
8.47000,-86.07590,12.07350,-50.97908
8.48200,-87.75028,11.03634,-52.56335
8.50400,-91.06214,9.39348,-54.56120
8.51600,-92.91355,8.53538,-54.91073
8.53800,-96.28743,6.85761,-54.24753
8.56000,-99.49546,4.91964,-52.65992
8.57200,-101.11906,3.72270,-51.54068
8.59400,-103.91691,1.36987,-49.61543
8.60600,-105.44073,0.05520,-48.82846
8.62800,-108.27286,-2.18442,-48.19405
8.64000,-109.90803,-3.23335,-48.30610
8.66200,-113.13913,-4.69818,-49.29285
8.68400,-116.58013,-5.65340,-50.91369
8.69600,-118.54250,-5.96681,-51.95161
8.71800,-122.16324,-6.24030,-53.91504
8.73000,-124.08105,-6.30110,-54.92517
8.75200,-127.42773,-6.36491,-56.52300
8.76400,-129.12207,-6.35563,-57.28291
8.78600,-131.92195,-6.17160,-58.55735
8.80800,-134.38841,-5.82498,-59.72970
8.82000,-135.52867,-5.58584,-60.30508
8.84200,-137.21039,-5.12479,-61.22341
8.85400,-137.89975,-4.88033,-61.63079
8.87600,-138.73128,-4.36019,-62.26322
8.88800,-138.92493,-4.01873,-62.56163
8.91000,-138.77405,-3.37666,-63.03927
8.92200,-138.38783,-3.07816,-63.17474
8.94400,-137.07999,-2.84370,-63.13725
8.96600,-135.20438,-3.05470,-62.49518
8.97800,-133.86226,-3.29900,-61.93664
9.00000,-130.86816,-3.88502,-60.56324
9.01200,-128.98824,-4.23313,-59.51574
9.03400,-125.15047,-4.77374,-57.20790
9.04600,-122.89389,-4.99331,-55.73278
9.06800,-118.61533,-5.21429,-52.59185
9.09000,-114.33123,-5.06334,-49.12652
9.10700,-111.15148,-4.59558,-46.41857
9.11900,-109.09087,-4.02447,-44.64527
9.14100,-105.75773,-2.48303,-42.10850
9.15300,-104.19273,-1.41271,-41.37272
9.17500,-101.72535,0.84335,-41.58404
9.18700,-100.46364,2.25419,-42.71948
9.20900,-98.11079,4.87735,-46.39554
9.22128,-96.68156,6.20866,-48.90085
9.24300,-93.96033,8.11002,-53.17238
9.26500,-91.12877,9.50499,-56.33319
9.27700,-89.61448,10.08458,-57.26102
9.29900,-86.95389,11.09512,-57.50131
9.31100,-85.62416,11.72548,-56.93856
9.33300,-83.47898,13.09294,-54.97931
9.34500,-82.43017,13.98277,-53.62617
9.36700,-80.80546,15.79146,-50.97042
9.38900,-79.51360,17.70885,-48.30225
9.40100,-78.99264,18.75539,-46.93983
9.42300,-78.37687,20.58119,-44.66513
9.43500,-78.21360,21.48705,-43.53614
9.45700,-78.19797,22.86481,-41.67618
9.46900,-78.29733,23.39033,-40.83166
9.49100,-78.64658,23.88705,-39.64835
9.51300,-79.09492,23.87685,-38.89686
9.52500,-79.35938,23.58842,-38.78619
9.54700,-79.91388,22.56455,-39.11463
9.55900,-80.27974,21.76443,-39.53440
9.58100,-81.16748,19.96957,-40.61650
9.59300,-81.77835,18.86570,-41.36170
9.61500,-83.14449,16.64709,-43.13614
9.62700,-84.05486,15.39447,-44.28822
9.64900,-86.05715,13.20259,-46.65779
9.67100,-88.42401,11.17810,-49.29778
9.68300,-89.81029,10.20865,-50.75952
9.70500,-92.55940,8.65694,-52.99389
9.71700,-94.12197,7.87964,-53.73586
9.73900,-97.01795,6.46324,-54.07464
9.76100,-99.84431,4.91946,-53.47004
9.77300,-101.35859,3.95426,-52.77338
9.79500,-103.97478,1.97957,-51.20108
9.80700,-105.33376,0.83792,-50.34801
9.82900,-107.77773,-1.26122,-49.15604
9.84100,-109.13867,-2.32162,-48.85785
9.86300,-111.75385,-3.90207,-49.11964
9.87529,-113.30396,-4.54801,-49.67240
9.89700,-116.18871,-5.37151,-51.07308
9.91900,-119.20089,-5.93465,-52.69555
9.93100,-120.83807,-6.12547,-53.59259
9.95300,-123.76650,-6.30405,-55.19558
9.96500,-125.28649,-6.28764,-56.05300
9.98700,-127.85357,-6.04332,-57.60110
9.99900,-129.10204,-5.84628,-58.37255
10.02100,-131.07742,-5.48840,-59.55180
10.03300,-131.95824,-5.30344,-60.09183
10.05500,-133.18588,-4.94838,-60.92216
10.07700,-134.02106,-4.56118,-61.58194
10.08900,-134.24120,-4.31411,-61.87529
10.11100,-134.20465,-3.86021,-62.26582
10.12300,-133.93694,-3.67803,-62.38034
10.14500,-132.95120,-3.49392,-62.25492
10.15700,-132.14224,-3.51902,-61.94664
10.17900,-130.17743,-3.84458,-60.99564
10.20100,-127.76546,-4.35045,-59.49849
10.21300,-126.24113,-4.64114,-58.44134
10.23500,-123.15028,-5.05392,-56.17883
10.24700,-121.34907,-5.15637,-54.83604
10.26900,-117.93639,-5.08728,-52.27135
10.28100,-116.06547,-4.90844,-50.85040
10.30300,-112.74300,-4.25594,-48.35952
10.32500,-109.60689,-3.23134,-46.21258
10.33700,-108.03162,-2.48170,-45.34943
10.35900,-105.38140,-0.80267,-44.57449
10.37100,-104.04945,0.22092,-44.64284
10.39300,-101.77395,2.18311,-45.61014
10.40500,-100.53738,3.31363,-46.54294
10.42700,-98.26884,5.32981,-48.83573
10.44900,-95.91368,7.13989,-51.41283
10.46100,-94.61982,7.98836,-52.58354
10.48300,-92.29621,9.31790,-53.87495
10.49500,-91.08080,9.95631,-54.11466
10.51700,-88.98203,11.07771,-53.72100
10.52900,-87.94039,11.70777,-53.16340
10.55100,-86.26752,12.93717,-51.65697
10.56300,-85.49426,13.63259,-50.69084
10.58500,-84.20631,14.97709,-48.93325
10.60700,-83.18842,16.30143,-47.19694
10.61900,-82.77055,16.98456,-46.31335
10.64100,-82.27287,18.13048,-44.72102
10.65300,-82.14542,18.65637,-43.89358
10.67500,-82.12727,19.33116,-42.54481
10.68700,-82.21098,19.51617,-41.94654
10.70900,-82.51701,19.48848,-41.20694
10.72100,-82.73807,19.26589,-41.07308
10.74300,-83.22720,18.50861,-41.38771
10.76500,-83.85971,17.45437,-42.14850
10.77700,-84.32198,16.74854,-42.70938
10.79900,-85.42039,15.25487,-43.94148
10.81100,-86.14880,14.35642,-44.72874
10.83300,-87.72297,12.63695,-46.34221
10.84500,-88.75140,11.68934,-47.34034
10.86700,-90.82947,10.05343,-49.27724
10.88900,-93.05853,8.56567,-51.17537
10.90100,-94.33590,7.80858,-52.05124
10.92300,-96.77016,6.47344,-53.12118
10.93500,-98.10858,5.74174,-53.39318
10.95700,-100.52524,4.36448,-53.32964
10.96900,-101.85406,3.54665,-53.04657
10.99100,-104.22749,1.96024,-52.24233
11.01300,-106.52927,0.29772,-51.45848
11.02500,-107.76254,-0.60374,-51.04285
11.04700,-110.02292,-2.16789,-50.59844
11.05900,-111.27878,-2.93167,-50.58615
11.08100,-113.64896,-4.09166,-51.00125
11.09300,-114.97489,-4.58510,-51.44572
11.11000,-116.87983,-5.10931,-52.29359
11.13200,-119.35149,-5.57557,-53.55651
11.15400,-121.76157,-5.82356,-54.90873
11.16600,-123.01143,-5.86917,-55.66291
11.18800,-125.13725,-5.80835,-57.02001
11.20000,-126.18298,-5.71465,-57.71876
11.22200,-127.85812,-5.43867,-58.89064
11.23400,-128.61993,-5.23953,-59.45421
11.25600,-129.68469,-4.81030,-60.33994
11.26828,-130.08350,-4.57181,-60.73057
11.29000,-130.40643,-4.21672,-61.16169
11.31200,-130.32196,-3.96530,-61.31287
11.32400,-130.05655,-3.89895,-61.24040
11.34600,-129.15242,-3.89099,-60.80286
11.35800,-128.43431,-3.94801,-60.37922
11.38000,-126.74124,-4.17928,-59.25129
11.39200,-125.62807,-4.34049,-58.45937
11.41400,-123.28914,-4.59097,-56.76416
11.43600,-120.71130,-4.72422,-54.89152
11.44800,-119.22254,-4.70722,-53.81176
11.47000,-116.40552,-4.48055,-51.80028
11.48200,-114.87026,-4.22786,-50.72426
11.50400,-112.12627,-3.50194,-48.94159
11.51600,-110.69100,-2.96374,-48.13868
11.53800,-108.22471,-1.74433,-47.08332
11.56000,-105.92849,-0.30085,-46.55600
11.57200,-104.75146,0.57879,-46.57557
11.59400,-102.69650,2.27593,-47.14242
11.60600,-101.60711,3.20387,-47.66690
11.62800,-99.53403,4.90198,-48.83972
11.64000,-98.40860,5.75762,-49.52618
11.66200,-96.35898,7.17574,-50.44664
11.67400,-95.27880,7.86448,-50.73082
11.69600,-93.36943,9.02045,-50.78390
11.71800,-91.58262,10.11669,-50.44484
11.73000,-90.69460,10.69776,-50.06495
11.75200,-89.24477,11.75794,-49.09641
11.76400,-88.57029,12.31998,-48.44794
11.78600,-87.55158,13.30376,-47.10275
11.79800,-87.12263,13.79280,-46.37080
11.82000,-86.54401,14.58156,-45.07981
11.84200,-86.08226,15.29766,-43.96395
11.85400,-85.92538,15.59056,-43.46284
11.87600,-85.79802,15.90863,-42.80529
11.88800,-85.81452,15.94677,-42.57301
11.91000,-85.99322,15.75928,-42.44748
11.92200,-86.17733,15.52087,-42.49570
11.94400,-86.67052,14.84533,-42.85035
11.96600,-87.33784,13.97356,-43.40239
11.97800,-87.86123,13.38126,-43.74905
12.00000,-89.02637,12.16538,-44.58855
12.01200,-89.75586,11.45674,-45.13227
12.03400,-91.28183,10.11189,-46.30896
12.04600,-92.19867,9.38118,-47.01877
12.06800,-94.02792,8.07876,-48.42041
12.08000,-95.08437,7.39521,-49.14663
12.10200,-97.10307,6.15159,-50.23998
12.12400,-99.17210,4.91952,-51.06068
12.13600,-100.30669,4.23775,-51.34401
12.15800,-102.46842,2.91786,-51.59422
12.17000,-103.63747,2.18762,-51.60865
12.19200,-105.75541,0.84535,-51.53787
12.21400,-107.84898,-0.48645,-51.45949
12.22600,-108.98100,-1.19783,-51.40271
12.24800,-111.05418,-2.41825,-51.42332
12.26000,-112.18480,-3.02892,-51.52880
12.28200,-114.25772,-4.02116,-51.92897
12.29400,-115.39219,-4.47252,-52.25594
12.31600,-117.45067,-5.11189,-53.05273
12.32800,-118.55202,-5.35960,-53.57244
12.35000,-120.49691,-5.66406,-54.61922
12.37200,-122.33138,-5.81169,-55.69066
12.38400,-123.25580,-5.82218,-56.26765
12.40600,-124.75698,-5.70153,-57.27238
12.41800,-125.45725,-5.58307,-57.78173
12.44000,-126.47494,-5.34061,-58.56744
12.45200,-126.87621,-5.21778,-58.89054
12.47400,-127.30420,-5.02104,-59.26807
12.48600,-127.37028,-4.92067,-59.37228
12.50800,-127.16066,-4.74149,-59.39962
12.53000,-126.63222,-4.58482,-59.23457
12.54200,-126.16254,-4.52668,-59.02289
12.56400,-124.98447,-4.50170,-58.38474
12.57600,-124.17858,-4.50479,-57.87691
12.59800,-122.43108,-4.49751,-56.71170
12.61000,-121.35367,-4.48274,-55.95976
12.63200,-119.18623,-4.40372,-54.37658
12.65400,-116.88641,-4.21511,-52.61055
12.66600,-115.59123,-4.03764,-51.60649
12.68800,-113.21310,-3.53204,-49.84670
12.70000,-111.93843,-3.13866,-48.99673
12.72200,-109.69981,-2.19655,-47.74384
12.73400,-108.54261,-1.57964,-47.27702
12.75600,-106.53088,-0.28683,-46.84941
12.76800,-105.48425,0.47376,-46.85189
12.79000,-103.66229,1.91141,-47.21620
12.81200,-101.90147,3.35310,-47.82412
12.82400,-100.91457,4.16519,-48.23211
12.84600,-99.13438,5.57089,-49.09091
12.85800,-98.19041,6.26376,-49.45390
12.88000,-96.52480,7.40037,-49.69341
12.89200,-95.67389,7.96302,-49.62175
12.91400,-94.20269,8.92764,-49.21686
12.93600,-92.84290,9.84546,-48.71125
12.94800,-92.18375,10.31168,-48.34342
12.97000,-91.13602,11.10916,-47.48638
12.98200,-90.66727,11.49865,-46.96810
13.00400,-89.99197,12.12759,-45.94094
13.01600,-89.73266,12.40800,-45.35146
13.03800,-89.41951,12.80442,-44.39069
13.06000,-89.27907,13.04611,-43.65826
13.07200,-89.29768,13.07335,-43.37108
13.09400,-89.47001,12.94043,-43.05368
13.11100,-89.71071,12.69439,-43.07471
13.12300,-89.95264,12.42280,-43.23413
13.14500,-90.55037,11.75811,-43.76025
13.15700,-90.96066,11.32051,-44.10237
13.17900,-91.89038,10.37206,-44.76217
13.20100,-92.99052,9.33273,-45.55619
13.21300,-93.67474,8.73804,-46.06414
13.23500,-95.07012,7.63891,-47.17675
13.24700,-95.89724,7.05090,-47.83548
13.26900,-97.51975,5.99133,-49.03366
13.28100,-98.45484,5.41971,-49.65131
13.30300,-100.23237,4.38301,-50.55196
13.32500,-102.01976,3.34673,-51.22380
13.33700,-103.04729,2.73042,-51.42133
13.35900,-104.92441,1.54018,-51.52459
13.37100,-105.93066,0.86443,-51.51046
13.39300,-107.75558,-0.38994,-51.46511
13.40500,-108.73956,-1.05032,-51.42735
13.42700,-110.54214,-2.17608,-51.51005
13.43900,-111.52745,-2.71480,-51.66677
13.46100,-113.34653,-3.55532,-52.15966
13.48300,-115.17036,-4.26417,-52.80553
13.49500,-116.15086,-4.58386,-53.20920
13.51700,-117.89846,-5.05664,-53.98918
13.52900,-118.81459,-5.24713,-54.42525
13.55100,-120.38279,-5.48106,-55.24518
13.56300,-121.16692,-5.55739,-55.68679
13.58500,-122.44662,-5.62147,-56.44524
13.60700,-123.54466,-5.59817,-57.15479
13.61900,-124.03297,-5.54302,-57.50596
13.64100,-124.70374,-5.37756,-58.07151
13.65300,-124.93634,-5.26240,-58.32405
13.67500,-125.10651,-5.05048,-58.62073
13.68700,-125.05032,-4.95136,-58.67295
13.70900,-124.66225,-4.80065,-58.54142
13.72100,-124.29427,-4.74898,-58.33926
13.74300,-123.35632,-4.70418,-57.71462
13.76500,-122.16917,-4.67718,-56.85860
13.77700,-121.39939,-4.64887,-56.29079
13.79900,-119.80006,-4.55429,-55.12651
13.81100,-118.83692,-4.46351,-54.42619
13.83300,-116.96174,-4.21066,-53.05339
13.85500,-115.01288,-3.82003,-51.65257
13.86700,-113.93289,-3.52572,-50.92443
13.88900,-111.95795,-2.85146,-49.72436
13.90100,-110.90370,-2.41249,-49.15905
13.92300,-109.02735,-1.48317,-48.32200
13.93500,-108.04810,-0.90946,-48.00675
13.95700,-106.32446,0.23042,-47.71510
13.96900,-105.41415,0.88136,-47.70042
13.99100,-103.82397,2.06402,-47.84446
14.01300,-102.31528,3.24949,-48.09866
14.02500,-101.51450,3.91726,-48.36368
14.04700,-99.98419,5.15716,-48.82695
14.05900,-99.18055,5.76721,-48.96478
14.08100,-97.78219,6.73769,-48.79214
14.09300,-97.08383,7.20228,-48.54392
14.11500,-95.90662,8.00579,-47.87572
14.12700,-95.31931,8.42513,-47.52126
14.14900,-94.35138,9.13373,-46.86246
14.17100,-93.52666,9.74557,-46.22287
14.18300,-93.16615,10.01765,-45.83636
14.20500,-92.65624,10.40539,-45.15615
14.21700,-92.45787,10.56098,-44.87026
14.23900,-92.25132,10.73541,-44.41242
14.25100,-92.22596,10.75459,-44.24225
14.27300,-92.32043,10.64568,-44.10881
14.29500,-92.56020,10.38327,-44.15829
14.30700,-92.76305,10.16798,-44.31045
14.32900,-93.26987,9.65096,-44.76696
14.34100,-93.62070,9.30696,-45.09041
14.36300,-94.40951,8.56367,-45.72033
14.37500,-94.91208,8.10340,-46.11201
14.39700,-95.96461,7.20121,-46.87342
14.40928,-96.61671,6.68077,-47.35616
14.43200,-97.94599,5.71248,-48.32842
14.45400,-99.31891,4.80291,-49.27291
14.46600,-100.11130,4.30929,-49.78125
14.48800,-101.62391,3.39113,-50.55674
14.50000,-102.51733,2.85041,-50.91338
14.52200,-104.16962,1.85367,-51.36976
14.53400,-105.07121,1.29705,-51.59629
14.55600,-106.71378,0.25152,-51.87163
14.56800,-107.59985,-0.32794,-51.98412
14.59000,-109.21375,-1.37466,-52.08073
14.61200,-110.80888,-2.34513,-52.25836
14.62400,-111.67289,-2.81663,-52.42497
14.64600,-113.25056,-3.57165,-52.86112
14.65800,-114.10312,-3.93152,-53.14708
14.68000,-115.63326,-4.51181,-53.72511
14.69200,-116.44098,-4.76634,-54.06206
14.71400,-117.84731,-5.12693,-54.73786
14.73600,-119.16080,-5.38107,-55.43124
14.74800,-119.81405,-5.47699,-55.79545
14.77000,-120.87141,-5.58756,-56.41175
14.78200,-121.36251,-5.60510,-56.72974
14.80400,-122.09368,-5.56095,-57.25541
14.81600,-122.39256,-5.50205,-57.49531
14.83800,-122.72697,-5.34261,-57.82637
14.86000,-122.84168,-5.18996,-58.00970
14.87200,-122.77464,-5.12885,-57.99638
14.89400,-122.41716,-5.05697,-57.76165
14.90600,-122.09752,-5.02047,-57.52921
14.92800,-121.29648,-4.92737,-56.95251
14.94000,-120.75388,-4.85690,-56.57830
14.96200,-119.58907,-4.70008,-55.73185
14.97400,-118.86485,-4.58786,-55.20951
14.99600,-117.40757,-4.31454,-54.17826
15.01800,-115.82910,-3.97928,-53.12240
15.03000,-114.92706,-3.77122,-52.51929
15.05200,-113.24434,-3.30370,-51.39317
15.06400,-112.32364,-2.97284,-50.83023
15.08600,-110.66963,-2.21079,-49.98906
15.11300,-108.68727,-1.13672,-49.22749
15.12500,-107.83537,-0.62451,-48.96191
15.13700,-107.01973,-0.09043,-48.74991
15.15900,-105.57452,0.94920,-48.50512
15.17100,-104.81166,1.53095,-48.44948
15.19300,-103.46251,2.57283,-48.41158
15.20500,-102.75519,3.11832,-48.44260
15.22700,-101.50349,4.07775,-48.44376
15.23900,-100.80202,4.60042,-48.42979
15.26100,-99.57525,5.49466,-48.39352
15.28300,-98.43764,6.30793,-48.19573
15.29500,-97.87376,6.71571,-48.02355
15.31700,-96.93591,7.38670,-47.61942
15.32900,-96.48553,7.70345,-47.36170
15.35100,-95.77415,8.19809,-46.86220
15.36300,-95.45732,8.42248,-46.58907
15.38500,-95.01643,8.74277,-46.11256
15.40700,-94.69404,8.96634,-45.75980
15.41900,-94.58955,9.02923,-45.62114
15.44100,-94.53360,9.03022,-45.46322
15.45300,-94.56892,8.96544,-45.43447
15.47500,-94.77248,8.74432,-45.55211
15.48700,-94.95087,8.56054,-45.67852
15.50900,-95.39736,8.12407,-46.01123
15.52100,-95.70745,7.82608,-46.24589
15.54300,-96.39917,7.17652,-46.66679
15.56500,-97.21786,6.46257,-47.21669
15.57700,-97.72121,6.05593,-47.60423
15.59900,-98.74871,5.29615,-48.44756
15.61100,-99.35884,4.87029,-48.96730
15.63300,-100.55624,4.07891,-49.86865
15.64500,-101.24425,3.64238,-50.34147
15.66700,-102.64486,2.77196,-51.11472
15.68900,-104.08651,1.90293,-51.80424
15.70100,-104.88148,1.41750,-52.11593
15.72300,-106.33881,0.49982,-52.53531
15.73500,-107.13024,0.00729,-52.69912
15.75700,-108.56762,-0.87547,-52.96496
15.76900,-109.33922,-1.34068,-53.15709
15.79100,-110.73232,-2.15953,-53.39861
15.81300,-112.09648,-2.93161,-53.64233
15.82500,-112.82924,-3.32330,-53.78681
15.84700,-114.13748,-3.97222,-54.10880
15.85900,-114.82785,-4.27018,-54.33087
15.88100,-116.04831,-4.71809,-54.82465
15.89300,-116.67965,-4.90608,-55.12207
15.91500,-117.76169,-5.14927,-55.69890
15.93700,-118.74043,-5.29268,-56.29921
15.94900,-119.21105,-5.32915,-56.61845
15.97100,-119.93726,-5.35046,-57.14337
15.98300,-120.24584,-5.33774,-57.37799
16.00500,-120.64076,-5.27977,-57.70323
16.01700,-120.75943,-5.23165,-57.82493
16.03900,-120.78611,-5.13030,-57.92741
16.05100,-120.69975,-5.07048,-57.91051
16.07300,-120.34042,-4.93809,-57.72750
16.09500,-119.79569,-4.77955,-57.40833
16.10700,-119.40171,-4.68841,-57.14698
16.12900,-118.49991,-4.50770,-56.52085
16.14100,-117.92793,-4.41065,-56.09963
16.16300,-116.74212,-4.21388,-55.18616
16.17500,-116.03369,-4.07724,-54.64805
16.19700,-114.65646,-3.74382,-53.62567
16.20900,-113.87911,-3.51414,-53.07948
16.23100,-112.43504,-2.99760,-52.13956
16.25300,-110.99561,-2.39692,-51.27871
16.26500,-110.22245,-2.02226,-50.87087
16.28700,-108.84229,-1.24971,-50.25533
16.29900,-108.11227,-0.79322,-49.98623
16.32100,-106.82129,0.09931,-49.63124
16.33300,-106.13932,0.59974,-49.49617
16.35500,-104.92870,1.51035,-49.32554
16.37700,-103.76736,2.40175,-49.29698
16.38900,-103.15957,2.87576,-49.30162
16.41100,-102.09526,3.71253,-49.28534
16.42300,-101.48808,4.17302,-49.29860
16.44500,-100.43443,4.95172,-49.19917
16.45700,-99.90820,5.32893,-49.11473
16.47900,-99.02592,5.95257,-48.83343
16.50100,-98.24170,6.51464,-48.49641
16.51300,-97.87104,6.78200,-48.27799
16.53500,-97.29256,7.20103,-47.83605
16.54700,-97.03558,7.38724,-47.60320
16.56900,-96.68610,7.62192,-47.22888
16.58100,-96.55624,7.70380,-47.05410
16.60300,-96.42771,7.77261,-46.85483
16.61500,-96.41744,7.76241,-46.81207
16.63700,-96.50249,7.62476,-46.83858
16.65900,-96.69831,7.38043,-46.95259
16.67100,-96.86527,7.18658,-47.07341
16.69300,-97.28642,6.74653,-47.35973
16.70500,-97.58032,6.47022,-47.58734
16.72700,-98.22694,5.90226,-48.14763
16.73900,-98.63758,5.57243,-48.51303
16.76100,-99.49726,4.94375,-49.31652
16.78300,-100.44253,4.31654,-50.20944
16.79500,-101.00038,3.97315,-50.68893
16.81700,-102.08587,3.33258,-51.53406
16.82900,-102.75200,2.93083,-51.93048
16.85100,-103.99311,2.15450,-52.50643
16.86300,-104.67747,1.71338,-52.74642
16.88500,-105.92664,0.88647,-53.12870
16.90700,-107.16574,0.06263,-53.42627
16.91900,-107.83463,-0.39314,-53.53826
16.94100,-109.04150,-1.20895,-53.83364
16.95300,-109.69847,-1.63519,-53.95613
16.97500,-110.89092,-2.34738,-54.22385
16.98700,-111.52747,-2.69660,-54.41035
17.00900,-112.67110,-3.28799,-54.78410
17.02100,-113.27757,-3.58281,-54.99273
17.04300,-114.35374,-4.03304,-55.42255
17.06500,-115.38676,-4.38459,-55.91941
17.07700,-115.91751,-4.51687,-56.22645
17.09900,-116.81060,-4.68465,-56.80855
17.11600,-117.42530,-4.77264,-57.21357
17.12800,-117.78602,-4.80706,-57.46778
17.15000,-118.31654,-4.83183,-57.85935
17.16200,-118.52161,-4.83365,-58.02730
17.18400,-118.73618,-4.81843,-58.21835
17.20600,-118.79508,-4.77640,-58.28122
17.21800,-118.73383,-4.73277,-58.25719
17.24000,-118.45028,-4.64691,-58.10296
17.25200,-118.21460,-4.60305,-57.91997
17.27400,-117.63656,-4.49472,-57.44664
17.29600,-116.92088,-4.31782,-56.89503
17.30800,-116.45994,-4.18686,-56.57936
17.33000,-115.50960,-3.93267,-55.90477
17.34200,-114.94289,-3.79397,-55.46471
17.36400,-113.82414,-3.47864,-54.61482
17.37600,-113.17799,-3.25592,-54.16608
17.39800,-111.95419,-2.77128,-53.38718
17.41000,-111.27611,-2.49268,-52.96305
17.43200,-110.03967,-1.93655,-52.20116
17.45400,-108.82974,-1.30893,-51.53580
17.46600,-108.17975,-0.91344,-51.26448
17.48800,-107.01931,-0.12775,-50.93254
17.50000,-106.41505,0.30567,-50.78785
17.52200,-105.35176,1.08871,-50.54443
17.53400,-104.79282,1.51933,-50.44058
17.55600,-103.80429,2.29512,-50.39583
17.57800,-102.86348,3.04080,-50.30531
17.59000,-102.37818,3.42149,-50.25587
17.61200,-101.55044,4.07440,-50.10261
17.62400,-101.08344,4.43470,-49.99609
17.64600,-100.28902,5.04992,-49.77742
17.65800,-99.89684,5.35011,-49.65494
17.68000,-99.26343,5.82593,-49.41971
17.69200,-98.96714,6.03531,-49.24186
17.71400,-98.52085,6.34301,-48.89915
17.73600,-98.16520,6.58770,-48.53304
17.74800,-98.03079,6.67615,-48.39578
17.77000,-97.87698,6.74809,-48.17381
17.78200,-97.84848,6.73834,-48.09491
17.80400,-97.90043,6.65239,-48.11876
17.81600,-97.97763,6.56788,-48.19273
17.83800,-98.20300,6.33992,-48.47115
17.85028,-98.39320,6.15875,-48.61580
17.87200,-98.83980,5.76254,-48.87423
17.89400,-99.36990,5.30570,-49.24957
17.90600,-99.70444,5.03402,-49.52623
17.92800,-100.40267,4.50570,-50.15995
17.94000,-100.83015,4.19785,-50.53609
17.96200,-101.68707,3.62771,-51.32275
17.97400,-102.23001,3.28884,-51.77402
17.99600,-103.27703,2.65754,-52.56183
18.01800,-104.35846,2.00842,-53.22303
18.03000,-104.96298,1.62954,-53.53419
18.05200,-106.06685,0.90390,-53.91496
18.06400,-106.67284,0.50368,-54.08224
18.08600,-107.76756,-0.21923,-54.41440
18.09800,-108.35360,-0.59730,-54.53439
18.12000,-109.40686,-1.25838,-54.84323
18.14200,-110.42635,-1.92439,-55.08870
18.15400,-110.97126,-2.27413,-55.20666
18.17600,-111.93951,-2.87756,-55.43961
18.18800,-112.45411,-3.15959,-55.59901
18.21000,-113.36221,-3.58782,-55.98593
18.22200,-113.83504,-3.78040,-56.22933
18.24400,-114.66253,-4.06427,-56.69812
18.25600,-115.07930,-4.18274,-56.94960
18.27800,-115.75741,-4.31572,-57.41209
18.30000,-116.33199,-4.38529,-57.86094
18.31200,-116.58405,-4.41875,-58.05712
18.33400,-116.92454,-4.46837,-58.31425
18.34600,-117.03288,-4.47687,-58.40916
18.36800,-117.10260,-4.43638,-58.51234
18.38000,-117.06401,-4.39004,-58.53392
18.40200,-116.84195,-4.29864,-58.47075
18.42400,-116.48506,-4.21436,-58.25223
18.43600,-116.22227,-4.16545,-58.05027
18.45800,-115.61899,-4.01991,-57.60262
18.47000,-115.23127,-3.90266,-57.33885
18.49200,-114.43007,-3.66298,-56.78196
18.50400,-113.95158,-3.52314,-56.42083
18.52600,-113.01029,-3.22493,-55.69494
18.54800,-112.00716,-2.83657,-54.98717
18.56000,-111.43940,-2.59406,-54.61837
18.58200,-110.37097,-2.12363,-53.91276
18.59400,-109.78703,-1.85577,-53.51308
18.61600,-108.71812,-1.30606,-52.83229
18.62800,-108.14433,-0.97154,-52.53485
18.65000,-107.11629,-0.32056,-52.11567
18.66200,-106.57650,0.04731,-51.92631
18.68400,-105.63027,0.73327,-51.63219
18.70600,-104.72562,1.43888,-51.50454
18.71800,-104.25569,1.82121,-51.43067
18.74000,-103.43932,2.48798,-51.37767
18.75200,-103.02699,2.82959,-51.34576
18.77400,-102.33125,3.43427,-51.22303
18.78600,-101.97110,3.74613,-51.14996
18.80800,-101.27122,4.31922,-51.01086
18.83000,-100.64408,4.80310,-50.81545
18.84200,-100.34434,5.03596,-50.67442
18.86400,-99.85717,5.41375,-50.40828
18.87600,-99.62995,5.58442,-50.27830
18.89800,-99.29420,5.81448,-50.00935
18.91000,-99.16693,5.88888,-49.85914
18.93200,-99.02155,5.95877,-49.63851
18.95400,-98.95882,5.97448,-49.49940
18.96600,-98.96831,5.94926,-49.48378
18.98800,-99.08807,5.81841,-49.56109
19.00000,-99.20898,5.70323,-49.62960
19.02200,-99.51382,5.45657,-49.84405
19.03400,-99.72308,5.29494,-50.03439
19.05600,-100.19767,4.93371,-50.47369
19.06800,-100.50040,4.71006,-50.70988
19.09000,-101.12750,4.27008,-51.19952
19.11700,-101.94695,3.72030,-52.00399
19.12900,-102.38877,3.43200,-52.38363
19.14100,-102.86401,3.12177,-52.73142
19.16300,-103.77483,2.51946,-53.33602
19.17500,-104.28041,2.18450,-53.65882
19.19700,-105.22321,1.55587,-54.20867
19.20900,-105.73715,1.20368,-54.47373
19.23100,-106.69141,0.54080,-54.85205
19.25300,-107.64668,-0.12241,-55.15083
19.26500,-108.15904,-0.46655,-55.36831
19.28700,-109.08749,-1.06003,-55.68290
19.29900,-109.58331,-1.37597,-55.84791
19.32100,-110.46617,-1.92285,-56.13434
19.33300,-110.93195,-2.21434,-56.29060
19.35500,-111.75399,-2.68307,-56.59923
19.37700,-112.53512,-3.07245,-56.95643
19.38900,-112.93276,-3.25908,-57.17608
19.41100,-113.60897,-3.56083,-57.56203
19.42300,-113.94117,-3.70190,-57.75962
19.44500,-114.47708,-3.89432,-58.11457
19.45700,-114.72878,-3.96154,-58.30752
19.47900,-115.09184,-4.00931,-58.62925
19.50100,-115.34833,-4.03285,-58.86333
19.51300,-115.42658,-4.04953,-58.92564
19.53500,-115.43646,-4.07007,-58.93245
19.54700,-115.37700,-4.08533,-58.87799
19.56900,-115.16978,-4.06867,-58.69908
19.58100,-114.99506,-4.00877,-58.58675
19.60300,-114.57518,-3.84832,-58.37038
19.61500,-114.29579,-3.75426,-58.22849
19.63700,-113.69795,-3.56544,-57.87656
19.65900,-113.01987,-3.33241,-57.44059
19.67100,-112.61363,-3.16637,-57.17981
19.69300,-111.79652,-2.80639,-56.65851
19.70500,-111.32649,-2.61180,-56.32791
19.72700,-110.42076,-2.27083,-55.62459
19.73900,-109.91756,-2.05756,-55.22401
19.76100,-108.99033,-1.57797,-54.57505
19.78300,-108.05842,-1.02283,-54.05659
19.79500,-107.55460,-0.71180,-53.79220
19.81700,-106.66296,-0.15951,-53.29679
19.82900,-106.18652,0.14553,-53.03979
19.85100,-105.34307,0.73840,-52.67052
19.86300,-104.90921,1.07458,-52.57469
19.88500,-104.16750,1.68605,-52.42830
19.89729,-103.78394,2.01784,-52.31252
19.91900,-103.15311,2.57971,-52.21247
19.94100,-102.56829,3.13029,-52.15631
19.95300,-102.28024,3.41598,-52.13502
19.97500,-101.80094,3.90077,-52.03550
19.98700,-101.51543,4.16858,-51.97788
20.00900,-101.05000,4.58763,-51.82826
20.03100,-100.63759,4.92493,-51.57443
20.04300,-100.45920,5.06140,-51.43650
20.06500,-100.19290,5.25991,-51.19483
20.07700,-100.08236,5.33963,-51.09970
20.09900,-99.96021,5.42740,-50.94264
20.11100,-99.93217,5.44111,-50.90207
20.13300,-99.97520,5.39376,-50.85471
20.14500,-100.03975,5.33321,-50.86455
20.16700,-100.23293,5.17484,-50.95694
20.18900,-100.51132,4.96343,-51.12365
20.20100,-100.70363,4.81758,-51.26056
20.22300,-101.12724,4.50413,-51.63426
20.23500,-101.39147,4.31619,-51.90586
20.25700,-101.94263,3.94071,-52.51996
20.26900,-102.31434,3.70474,-52.89753
20.29100,-103.04862,3.24141,-53.59127
20.30300,-103.47296,2.96327,-53.95977
20.32500,-104.28740,2.43661,-54.55708
20.34700,-105.12113,1.90053,-55.09506
20.35900,-105.58166,1.60769,-55.36107
20.38100,-106.43127,1.05230,-55.81684
20.39300,-106.89331,0.73938,-55.99356
20.41500,-107.72600,0.17733,-56.26744
20.42700,-108.16936,-0.12228,-56.42120
20.44900,-108.95320,-0.66294,-56.70980
20.47100,-109.70255,-1.20827,-56.84548
20.48300,-110.09451,-1.50781,-56.90163
20.50500,-110.76283,-2.03157,-57.04085
20.51700,-111.11047,-2.30037,-57.16167
20.53900,-111.72219,-2.73530,-57.46791
20.55100,-112.04014,-2.93008,-57.68430
20.57300,-112.59304,-3.19225,-58.19136
20.59500,-113.11396,-3.35398,-58.81077
20.60700,-113.37151,-3.41482,-59.14642
20.62900,-113.77821,-3.49052,-59.68538
20.64100,-113.95618,-3.51245,-59.96744
20.66300,-114.19190,-3.52556,-60.26771
20.67500,-114.25827,-3.51230,-60.35981
20.69700,-114.25987,-3.50195,-60.38610
20.70900,-114.19640,-3.51339,-60.30524
20.73100,-113.95251,-3.51288,-60.04594
20.75300,-113.59783,-3.46417,-59.74984
20.76500,-113.34779,-3.41905,-59.57037
20.78700,-112.80630,-3.33548,-59.16665
20.79900,-112.46947,-3.27779,-58.89559
20.82100,-111.78945,-3.10779,-58.36522
20.83300,-111.39465,-2.97654,-58.09570
20.85500,-110.64633,-2.69084,-57.58158
20.87700,-109.88868,-2.37829,-57.00953
20.88900,-109.47762,-2.17520,-56.70117
20.91100,-108.72145,-1.72561,-56.23593
20.92300,-108.31202,-1.44325,-56.03713
20.94500,-107.57430,-0.90018,-55.70632
20.95700,-107.17369,-0.60587,-55.56458
20.97900,-106.44495,-0.05454,-55.25529
21.00100,-105.71627,0.49764,-54.99574
21.01300,-105.32279,0.78873,-54.84583
21.03500,-104.63133,1.29465,-54.52794
21.04700,-104.27030,1.56357,-54.36164
21.06900,-103.65015,2.05917,-54.08323
21.08100,-103.33508,2.32252,-53.95874
21.10300,-102.82202,2.78338,-53.71141
21.12000,-102.47245,3.12160,-53.50505
21.14200,-102.08109,3.53488,-53.18352
21.15400,-101.84940,3.77433,-53.07151
21.17600,-101.48646,4.16842,-52.84496
21.18800,-101.32928,4.35113,-52.72019
21.21000,-101.09823,4.63152,-52.53373
21.22200,-101.00169,4.74695,-52.45804
21.24400,-100.88403,4.89432,-52.32171
21.25600,-100.85104,4.93830,-52.31239
21.27800,-100.85011,4.96448,-52.34885
21.30000,-100.90662,4.93007,-52.40680
21.31200,-100.97463,4.88251,-52.45168
21.33400,-101.17898,4.73839,-52.53484
21.34600,-101.32942,4.63937,-52.63095
21.36800,-101.66499,4.42657,-52.86065
21.38000,-101.87701,4.28608,-53.03344
21.40200,-102.32288,3.98488,-53.38240
21.42400,-102.91348,3.61621,-53.77800
21.43600,-103.25689,3.40462,-54.04726
21.45800,-103.90741,2.99482,-54.57666
21.47000,-104.27335,2.74644,-54.86423
21.49200,-104.97450,2.22945,-55.30385
21.50400,-105.36659,1.94135,-55.50116
21.52600,-106.08479,1.43842,-55.98643
21.54800,-106.80114,0.94722,-56.46459
21.56000,-107.19289,0.66930,-56.69710
21.58200,-107.92423,0.14068,-57.05474
21.59400,-108.31713,-0.13492,-57.26381
21.61600,-109.01984,-0.57453,-57.66757
21.62800,-109.38092,-0.79702,-57.92314
21.65000,-110.01581,-1.23927,-58.31446
21.66200,-110.34271,-1.48805,-58.46985
21.68400,-110.90025,-1.90339,-58.68059
21.70600,-111.40442,-2.23320,-58.97370
21.71800,-111.65036,-2.39272,-59.15786
21.74000,-112.05463,-2.68655,-59.44210
21.75200,-112.24768,-2.83159,-59.57710
21.77400,-112.54428,-3.03746,-59.84214
21.78600,-112.66402,-3.10611,-60.05846
21.80800,-112.81466,-3.19736,-60.33419
21.83000,-112.90682,-3.29488,-60.49345
21.84200,-112.90958,-3.32928,-60.52868
21.86400,-112.84383,-3.33434,-60.55124
21.87600,-112.75802,-3.30260,-60.54742
21.89800,-112.52618,-3.22841,-60.45676
21.91000,-112.35520,-3.19594,-60.34342
21.93200,-111.96168,-3.09929,-60.08936
21.94400,-111.70685,-3.02011,-59.93446
21.96600,-111.17130,-2.83386,-59.61166
21.98800,-110.57023,-2.64593,-59.21516
22.00000,-110.21634,-2.54381,-58.96225
22.02200,-109.53606,-2.33371,-58.57526
22.03400,-109.16438,-2.18039,-58.31572
22.05600,-108.48262,-1.79755,-57.87897
22.06800,-108.11105,-1.55156,-57.72005
22.09000,-107.42829,-1.08587,-57.30886
22.11200,-106.75434,-0.65002,-56.82686
22.12400,-106.39085,-0.42029,-56.53632
22.14600,-105.73825,0.01699,-56.11818
22.15800,-105.39627,0.27483,-55.93580
22.18000,-104.79563,0.78299,-55.61967
22.20200,-104.21729,1.27248,-55.47918
22.21400,-103.92287,1.51022,-55.40975
22.23600,-103.42992,1.92112,-55.25955
22.24800,-103.19213,2.15404,-55.19041
22.27000,-102.80191,2.60405,-55.18689
22.28200,-102.61198,2.83471,-55.16109
22.30400,-102.32815,3.18097,-55.05950
22.31600,-102.21662,3.33608,-54.95806
22.33800,-102.06396,3.63037,-54.75698
22.35000,-102.00017,3.79968,-54.69604
22.37200,-101.82568,4.10861,-54.58725
22.39400,-101.70962,4.30158,-54.38106
22.40600,-101.66906,4.34231,-54.21847
22.42800,-101.63804,4.37821,-53.94043
22.44000,-101.64144,4.38855,-53.87406
22.46200,-101.69872,4.34382,-53.79885
22.48400,-101.82998,4.21800,-53.68025
22.49600,-101.93983,4.12634,-53.68620
22.51800,-102.20763,3.96466,-53.84210
22.53000,-102.38481,3.88210,-54.04612
22.55200,-102.77846,3.69923,-54.49439
22.56400,-103.08115,3.54690,-54.73529
22.58600,-103.66966,3.24672,-55.30346
22.59800,-104.00851,3.08042,-55.62064
22.62000,-104.64079,2.76028,-56.23849
22.64200,-105.28960,2.39205,-56.76722
22.65400,-105.64567,2.16477,-57.04320
22.67600,-106.27962,1.70301,-57.38799
22.68800,-106.61353,1.44960,-57.56837
22.71000,-107.21276,0.97330,-57.89226
22.72200,-107.53666,0.70221,-58.01960
22.74400,-108.11093,0.19855,-58.22299
22.75600,-108.41745,-0.06731,-58.35563
22.77800,-108.96480,-0.52337,-58.64086
22.80000,-109.49927,-0.93554,-58.97494
22.81200,-109.78712,-1.14044,-59.15418
22.83400,-110.28582,-1.48917,-59.49136
22.84600,-110.53584,-1.66452,-59.69144
22.86800,-110.95435,-1.95665,-59.98866
22.88000,-111.15842,-2.10833,-60.15294
22.90200,-111.47848,-2.36070,-60.52320
22.92400,-111.73666,-2.56744,-60.85061
22.93600,-111.84582,-2.64662,-61.04713
22.95800,-111.98692,-2.76336,-61.39377
22.97000,-112.03251,-2.81469,-61.60089
22.99200,-112.04522,-2.88067,-61.80294
23.00400,-112.00723,-2.89345,-61.87687
23.02600,-111.86800,-2.89457,-61.93524
23.03828,-111.75025,-2.89554,-61.90251
23.06000,-111.48508,-2.87702,-61.73688
23.08200,-111.14674,-2.79932,-61.54074
23.09400,-110.92336,-2.72924,-61.41488
23.12100,-110.34866,-2.56734,-61.18370
23.13300,-110.06444,-2.50355,-61.00868
23.14500,-109.75790,-2.42354,-60.80758
23.16700,-109.15719,-2.20193,-60.37906
23.18900,-108.53501,-1.93401,-59.97559
23.20100,-108.18798,-1.79016,-59.74424
23.22300,-107.56688,-1.52553,-59.38985
23.23500,-107.23454,-1.35398,-59.21297
23.25700,-106.63902,-0.95341,-58.87933
23.26900,-106.32013,-0.71019,-58.79509
23.29100,-105.77888,-0.27156,-58.55320
23.30300,-105.49668,-0.04704,-58.43095
23.32500,-105.00504,0.37700,-58.21404
23.34700,-104.53341,0.83787,-58.09271
23.35900,-104.28983,1.08848,-58.00794
23.38100,-103.87634,1.50516,-57.82117
23.39300,-103.67088,1.70477,-57.66916
23.41500,-103.33200,2.05397,-57.36803
23.42700,-103.16033,2.25625,-57.23356
23.44900,-102.88886,2.60820,-57.01424
23.47100,-102.65961,2.88732,-56.71186
23.48300,-102.56316,3.00480,-56.53244
23.50500,-102.44351,3.19179,-56.22773
23.51700,-102.40419,3.28984,-56.10113
23.53900,-102.39265,3.46014,-56.04494
23.55100,-102.36693,3.55658,-56.00529
23.57300,-102.47343,3.61699,-55.94712
23.59500,-102.64138,3.63073,-55.92759
23.60700,-102.76097,3.63563,-55.93316
23.62900,-103.02932,3.61435,-56.03526
23.64100,-103.19772,3.56478,-56.08583
23.66300,-103.54539,3.41443,-56.16711
23.67500,-103.76018,3.30364,-56.23468
23.69700,-104.17700,3.08781,-56.42249
23.70900,-104.42037,2.97221,-56.56091
23.73100,-104.90456,2.71348,-56.86041
23.75300,-105.42583,2.39506,-57.12022
23.76500,-105.71961,2.21005,-57.26680
23.78700,-106.28110,1.88399,-57.59599
23.79900,-106.58964,1.70981,-57.79424
23.82100,-107.15705,1.36573,-58.16177
23.83300,-107.46784,1.15586,-58.33867
23.85500,-108.03052,0.74254,-58.65102
23.87700,-108.58270,0.33684,-58.94418
23.88900,-108.88188,0.12888,-59.14847
23.91100,-109.40548,-0.24700,-59.53572
23.92300,-109.68040,-0.44969,-59.76593
23.94500,-110.16483,-0.82041,-60.17103
23.95700,-110.41369,-1.01082,-60.37926
23.97900,-110.84081,-1.31872,-60.79632
23.99100,-111.04952,-1.46333,-61.02699
24.01300,-111.38688,-1.73543,-61.37975
24.03500,-111.67625,-2.03437,-61.65541
24.04700,-111.81061,-2.18714,-61.78975
24.06900,-111.99920,-2.41737,-62.04839
24.08100,-112.07513,-2.50798,-62.16409
24.10300,-112.15517,-2.63572,-62.46246
24.11500,-112.17485,-2.71612,-62.53874
24.13700,-112.14937,-2.83914,-62.65995
24.15900,-112.06258,-2.90161,-62.82004
24.17100,-111.97871,-2.91575,-62.90477
24.19300,-111.77724,-2.95687,-62.89956
24.20500,-111.63967,-2.96768,-62.90987
24.22700,-111.34379,-2.93532,-62.94159
24.23900,-111.15486,-2.86968,-62.99253
24.26100,-110.76307,-2.72417,-63.04929
24.28300,-110.33362,-2.60200,-62.98555
24.29500,-110.07811,-2.53115,-62.90457
24.31700,-109.58318,-2.35432,-62.67701
24.32900,-109.28847,-2.22690,-62.54631
24.35100,-108.72623,-1.99096,-62.23406
24.36300,-108.41528,-1.87911,-62.02578
24.38500,-107.84412,-1.67006,-61.53050
24.39700,-107.53778,-1.52325,-61.30831
24.41900,-106.98167,-1.19278,-60.98844
24.44100,-106.45137,-0.83899,-60.65953
24.45300,-106.18542,-0.65511,-60.46694
24.47500,-105.73004,-0.31463,-60.20313
24.48700,-105.49523,-0.11602,-60.04470
24.50900,-105.09721,0.26523,-59.81737
24.52100,-104.90839,0.46220,-59.72139
24.54300,-104.60585,0.81192,-59.59489
24.56500,-104.34277,1.16140,-59.45468
24.57700,-104.21859,1.35067,-59.41611
24.59900,-104.03161,1.68026,-59.35068
24.61100,-103.95039,1.83693,-59.27842
24.63300,-103.85096,2.07800,-59.05745
24.64500,-103.81316,2.19282,-58.94664
24.66700,-103.77162,2.37554,-58.71307
24.68900,-103.77187,2.50343,-58.44256
24.70100,-103.79433,2.54426,-58.30183
24.72300,-103.88788,2.59211,-58.02267
24.73500,-103.96098,2.60534,-57.90134
24.75700,-104.15027,2.60982,-57.71838
24.76900,-104.27169,2.59217,-57.67015
24.79100,-104.55242,2.50984,-57.66003
24.80300,-104.73472,2.43420,-57.67846
24.82500,-105.10119,2.29155,-57.85614
24.84700,-105.52144,2.15026,-58.09808
24.85900,-105.76852,2.06840,-58.28858
24.88100,-106.25278,1.89296,-58.66056
24.89300,-106.53244,1.78244,-58.86508
24.91500,-107.06265,1.56653,-59.26835
24.92700,-107.35049,1.44589,-59.51616
24.94900,-107.87379,1.19219,-59.90559
24.97100,-108.38967,0.88857,-60.17640
24.98300,-108.65789,0.69996,-60.32360
25.00500,-109.13776,0.32282,-60.47251
25.01700,-109.39056,0.12397,-60.57473
25.03900,-109.83871,-0.21932,-60.73932
25.05100,-110.06757,-0.40740,-60.85007
25.07300,-110.48008,-0.76805,-61.05291
25.09500,-110.86432,-1.11687,-61.33198
25.10700,-111.06368,-1.29706,-61.47059
25.12400,-111.32688,-1.53295,-61.67901
25.14600,-111.63474,-1.81470,-62.04397
25.15800,-111.78879,-1.96089,-62.23306
25.18000,-112.06018,-2.18224,-62.64317
25.19200,-112.18732,-2.26836,-62.89225
25.21400,-112.37109,-2.40129,-63.36697
25.23600,-112.50430,-2.53366,-63.75188
25.24800,-112.55035,-2.60628,-63.91375
25.27000,-112.57531,-2.73388,-64.10351
25.28200,-112.55750,-2.78545,-64.23225
25.30400,-112.45346,-2.85708,-64.32590
25.31600,-112.36655,-2.89794,-64.35659
25.33800,-112.15049,-2.95218,-64.30189
25.35000,-111.99891,-2.96342,-64.31347
25.37200,-111.67759,-2.97052,-64.25158
25.39400,-111.31139,-2.97445,-64.16425
25.40600,-111.09149,-2.96079,-64.04342
25.42800,-110.67119,-2.89367,-63.82373
25.44000,-110.43022,-2.83303,-63.76144
25.46200,-109.97864,-2.67668,-63.63397
25.47400,-109.72826,-2.58203,-63.51880
25.49600,-109.26372,-2.38821,-63.38543
25.51800,-108.80537,-2.15148,-63.26505
25.53000,-108.55025,-2.01004,-63.16230
25.55200,-108.09246,-1.74494,-62.98939
25.56400,-107.84357,-1.59223,-62.83212
25.58600,-107.39317,-1.31770,-62.58966
25.59800,-107.15767,-1.16207,-62.45765
25.62000,-106.74330,-0.85699,-62.15528
25.64200,-106.35340,-0.55396,-61.82963
25.65400,-106.15810,-0.39345,-61.67059
25.67600,-105.83088,-0.09995,-61.34611
25.68800,-105.66911,0.05832,-61.18762
25.71000,-105.41399,0.33348,-60.88286
25.72200,-105.29873,0.47327,-60.73982
25.74400,-105.13397,0.72074,-60.45007
25.75600,-105.07352,0.85324,-60.30788
25.77800,-105.00356,1.09196,-60.18312
25.80000,-104.97477,1.29679,-60.07398
25.81200,-104.98312,1.39110,-60.05313
25.83400,-105.04720,1.53185,-59.96744
25.84600,-105.10403,1.59679,-59.90585
25.86800,-105.24890,1.69296,-59.77091
25.88000,-105.34692,1.73262,-59.69573
25.90200,-105.55866,1.74233,-59.57110
25.92400,-105.80428,1.70220,-59.43788
25.93600,-105.95833,1.66848,-59.38291
25.95800,-106.27424,1.58913,-59.32785
25.97000,-106.46088,1.53405,-59.35164
25.99200,-106.83266,1.39766,-59.41774
26.00400,-107.05170,1.30727,-59.45379
26.02600,-107.47935,1.13928,-59.63289
26.03800,-107.72369,1.05160,-59.78085
26.06000,-108.18612,0.86741,-60.09285
26.08200,-108.67016,0.64986,-60.45785
26.09400,-108.93977,0.52325,-60.63953
26.11600,-109.43769,0.29971,-60.95622
26.12800,-109.69875,0.19097,-61.15366
26.15000,-110.15428,-0.03263,-61.48938
26.16200,-110.39820,-0.18912,-61.63412
26.18400,-110.82339,-0.50367,-61.83569
26.20600,-111.20143,-0.78445,-62.05533
26.21800,-111.39225,-0.93635,-62.19837
26.24000,-111.71035,-1.23394,-62.38832
26.25200,-111.86979,-1.40886,-62.47526
26.27400,-112.14822,-1.71137,-62.67428
26.28600,-112.27950,-1.84157,-62.81419
26.30800,-112.48898,-2.03475,-63.12695
26.33000,-112.67278,-2.25482,-63.39741
26.34200,-112.75464,-2.38428,-63.51458
26.36400,-112.87764,-2.57145,-63.76149
26.37600,-112.92277,-2.63219,-63.95755
26.39800,-112.96030,-2.71639,-64.31508
26.41000,-112.95428,-2.78151,-64.49136
26.43200,-112.89790,-2.90170,-64.68761
26.44400,-112.84325,-2.95017,-64.79533
26.46600,-112.67933,-2.97340,-65.03168
26.48800,-112.46275,-2.98514,-65.15521
26.50000,-112.32569,-3.01005,-65.18372
26.52200,-112.03374,-3.05536,-65.15405
26.53400,-111.85043,-3.05831,-65.12627
26.55600,-111.48080,-3.00783,-65.00168
26.56800,-111.26643,-2.96765,-64.95567
26.59000,-110.84878,-2.90678,-64.78195
26.61200,-110.42342,-2.84516,-64.60598
26.62400,-110.18121,-2.78585,-64.46812
26.64600,-109.72766,-2.62586,-64.20857
26.65800,-109.48233,-2.52998,-64.10702
26.68000,-109.03216,-2.36808,-63.92122
26.69200,-108.79906,-2.27791,-63.78192
26.71400,-108.39396,-2.07754,-63.59370
26.72629,-108.17791,-1.93265,-63.51022
26.74800,-107.82487,-1.64393,-63.49547
26.77000,-107.49585,-1.36229,-63.41251
26.78200,-107.33495,-1.22356,-63.34545
26.80400,-107.06259,-0.94777,-63.18224
26.81600,-106.92281,-0.78461,-63.11114
26.83800,-106.69505,-0.51975,-62.87794
26.85000,-106.58389,-0.40445,-62.71159
26.87200,-106.41302,-0.22102,-62.32740
26.89400,-106.27290,-0.01286,-62.03650
26.90600,-106.21669,0.09896,-61.89555
26.92800,-106.14774,0.26085,-61.64750
26.94000,-106.13825,0.33663,-61.48880
26.96200,-106.16547,0.45993,-61.22066
26.97400,-106.20585,0.51826,-61.08603
26.99600,-106.31953,0.62506,-60.96357
27.01800,-106.48972,0.72054,-60.83143
27.03000,-106.60209,0.74871,-60.79804
27.05200,-106.85308,0.77277,-60.77503
27.06400,-107.00569,0.78834,-60.77173
27.08600,-107.32247,0.81440,-60.81638
27.09800,-107.50892,0.80476,-60.88287
27.12500,-107.94665,0.74043,-60.96098
27.13700,-108.15089,0.69280,-60.97784
27.15900,-108.54279,0.56916,-61.06818
27.17100,-108.75939,0.49622,-61.09650
27.19300,-109.16746,0.34825,-61.15092
27.20500,-109.39387,0.25376,-61.21071
27.22700,-109.81328,0.07301,-61.37289
27.23900,-110.04223,-0.02948,-61.44523
27.26100,-110.46117,-0.22387,-61.61649
27.28300,-110.86730,-0.44685,-61.75310
27.29500,-111.08636,-0.57648,-61.85338
27.31700,-111.48227,-0.82217,-62.06128
27.32900,-111.68742,-0.93868,-62.23895
27.35100,-112.05305,-1.12358,-62.53241
27.36300,-112.23936,-1.21903,-62.71498
27.38500,-112.54641,-1.41007,-63.07240
27.39700,-112.70296,-1.53242,-63.19802
27.41900,-112.93590,-1.74798,-63.48799
27.44100,-113.13638,-1.96577,-63.75821
27.45300,-113.22897,-2.08302,-63.89299
27.47500,-113.36311,-2.26741,-64.13490
27.48700,-113.41665,-2.36441,-64.27378
27.50900,-113.46796,-2.51491,-64.55009
27.52100,-113.47878,-2.59113,-64.63834
27.54300,-113.45471,-2.72643,-64.74846
27.56500,-113.37445,-2.84262,-64.91484
27.57700,-113.30788,-2.91582,-64.99146
27.59900,-113.15368,-3.04142,-65.11118
27.61100,-113.04762,-3.08607,-65.13901
27.63300,-112.82707,-3.12796,-65.25233
27.64500,-112.69009,-3.13631,-65.31792
27.66700,-112.41411,-3.13414,-65.41672
27.67900,-112.25079,-3.12438,-65.45355
27.70100,-111.92028,-3.08816,-65.48576
27.72300,-111.56955,-3.02519,-65.52625
27.73500,-111.36832,-2.98359,-65.49653
27.75700,-110.98257,-2.90932,-65.33248
27.76900,-110.76409,-2.87771,-65.26505
27.79100,-110.36503,-2.78938,-65.11506
27.80300,-110.14571,-2.70647,-65.02365
27.82500,-109.74065,-2.54792,-64.80805
27.84700,-109.34818,-2.40483,-64.63175
27.85900,-109.13509,-2.33213,-64.52087
27.88100,-108.76888,-2.19507,-64.19546
27.89300,-108.58458,-2.10856,-64.02164
27.91500,-108.27332,-1.91319,-63.67370
27.92700,-108.13006,-1.80541,-63.50987
27.94900,-107.91866,-1.56726,-63.15738
27.97100,-107.71889,-1.28259,-62.93464
27.98300,-107.62014,-1.14923,-62.82804
28.00500,-107.45245,-0.98740,-62.61733
28.01700,-107.37103,-0.92919,-62.47341
28.03900,-107.25546,-0.81188,-62.22959
28.05100,-107.20476,-0.72002,-62.21270
28.07300,-107.15954,-0.58112,-62.28183
28.08500,-107.17922,-0.52879,-62.26005
28.10700,-107.27582,-0.40471,-62.26605
28.12900,-107.42121,-0.23203,-62.26444
28.14100,-107.52885,-0.13696,-62.27384
28.16300,-107.79433,-0.00436,-62.12122
28.17500,-107.94955,0.05642,-61.96625
28.19700,-108.21413,0.15393,-61.77478
28.20900,-108.34893,0.17375,-61.68110
28.23100,-108.59622,0.09227,-61.49494
28.25300,-108.83907,-0.06445,-61.25641
28.26500,-108.96337,-0.15920,-61.19372
28.28700,-109.21053,-0.34119,-61.22818
28.29900,-109.37637,-0.43845,-61.27722
28.32100,-109.74581,-0.56416,-61.46317
28.33300,-109.98273,-0.58292,-61.66767
28.35500,-110.45471,-0.54830,-62.15652
28.37700,-110.95721,-0.54198,-62.63382
28.38900,-111.23454,-0.56745,-62.84554
28.41100,-111.73334,-0.64611,-63.17430
28.42300,-111.98714,-0.68394,-63.31860
28.44500,-112.39298,-0.75680,-63.53478
28.45700,-112.58575,-0.83667,-63.55748
28.47900,-112.87729,-1.07618,-63.58648
28.49100,-112.99910,-1.24169,-63.53819
28.51300,-113.17108,-1.57156,-63.47206
28.53500,-113.32033,-1.87714,-63.36870
28.54700,-113.39315,-2.02036,-63.37300
28.56900,-113.52468,-2.24075,-63.49495
28.58100,-113.60256,-2.34988,-63.56238
28.60300,-113.74976,-2.50450,-63.70764
28.61500,-113.83139,-2.55162,-63.88483
28.63700,-113.97550,-2.59142,-64.27172
28.65900,-114.08268,-2.61438,-64.57882
28.67100,-114.12221,-2.62788,-64.78518
28.69300,-114.15182,-2.65297,-65.15495
28.70500,-114.13747,-2.65696,-65.33192
28.72700,-114.03819,-2.66706,-65.68355
28.73900,-113.95024,-2.70362,-65.81381
28.76100,-113.73528,-2.82013,-65.92708
28.77328,-113.57808,-2.87494,-65.93604
28.79500,-113.27039,-2.96481,-65.92627
28.81700,-112.94214,-3.03758,-65.79189
28.82900,-112.64431,-2.98907,-65.70564
28.85100,-112.11118,-2.87041,-65.50806
28.86300,-111.82597,-2.77722,-65.42205
28.88500,-111.29845,-2.55531,-65.25691
28.89700,-111.00706,-2.43314,-65.15395
28.91900,-110.46912,-2.23914,-64.98894
28.94100,-109.93835,-2.06496,-64.81887
28.95300,-109.65044,-1.96096,-64.71955
28.97500,-109.13403,-1.74524,-64.58927
28.98700,-108.86629,-1.60501,-64.58794
29.00900,-108.39378,-1.31211,-64.57706
29.02100,-108.14946,-1.14452,-64.58755
29.04300,-107.72272,-0.84074,-64.54338
29.06500,-107.30982,-0.56507,-64.39503
29.07700,-107.11105,-0.43544,-64.23705
29.09900,-106.77170,-0.17485,-63.94622
29.11100,-106.60008,-0.02103,-63.81391
29.12800,-106.37720,0.19031,-63.63054
29.15000,-106.11971,0.43898,-63.35533
29.16200,-105.99881,0.57462,-63.22857
29.18400,-105.79632,0.81967,-63.00784
29.20600,-105.61858,1.04251,-62.80242
29.21800,-105.54062,1.14236,-62.64985
29.24000,-105.44038,1.26301,-62.33549
29.25200,-105.41206,1.33538,-62.21218
29.27400,-105.39893,1.50703,-62.11821
29.28600,-105.42048,1.61197,-62.12596
29.30800,-105.50378,1.80216,-62.17870
29.32029,-105.56657,1.89230,-62.19961
29.34200,-105.70694,2.02910,-62.22784
29.36400,-105.85706,2.14651,-62.22878
29.37600,-105.94259,2.18954,-62.23228
29.39800,-106.10636,2.22859,-62.18371
29.41000,-106.20467,2.22764,-62.13451
29.43200,-106.37785,2.23403,-62.08017
29.44400,-106.47398,2.23944,-62.11266
29.46600,-106.65989,2.22942,-62.14647
29.48800,-106.85110,2.21139,-62.17314
29.50000,-106.95888,2.19620,-62.17173
29.52200,-107.15919,2.15076,-62.17091
29.53400,-107.25963,2.12465,-62.15066
29.55600,-107.44280,2.05707,-62.16658
29.56800,-107.53806,2.01805,-62.19837
29.59000,-107.70531,1.96958,-62.32864
29.61200,-107.84850,1.94001,-62.57214
29.62400,-107.91009,1.92060,-62.71624
29.64600,-108.00452,1.84696,-62.91141
29.65800,-108.04632,1.81536,-63.00460
29.68000,-108.04933,1.82022,-63.37420
29.69200,-108.02332,1.79266,-63.57885
29.71400,-107.99931,1.58826,-63.68198
29.72600,-107.97978,1.50439,-63.70626
29.74800,-107.90611,1.50218,-63.95352
29.77000,-107.81697,1.55880,-64.34268
29.78200,-107.75868,1.57973,-64.44617
29.80400,-107.66913,1.58280,-64.40927
29.81600,-107.57707,1.61073,-64.38941
29.83800,-107.32887,1.66015,-64.35931
29.85000,-107.16566,1.63742,-64.24767
29.87200,-106.82914,1.50883,-63.91626
29.89400,-106.45182,1.38989,-63.68045
29.90600,-106.21381,1.37282,-63.66319
29.92800,-105.78812,1.39080,-63.68641
29.94000,-105.55979,1.40517,-63.73043
29.96200,-105.15475,1.47580,-63.89342
29.97400,-104.92854,1.52998,-63.99884
29.99600,-104.54758,1.63859,-64.18501
30.01800,-104.17575,1.77867,-64.31394
30.03000,-103.98869,1.87743,-64.38158
30.05200,-103.63599,2.09688,-64.51468
30.06400,-103.43077,2.22781,-64.59343
30.08600,-103.03957,2.43814,-64.56567
30.09800,-102.81595,2.52244,-64.48383
30.12000,-102.37733,2.65491,-64.23865
30.13200,-102.13185,2.72053,-64.01452
30.15400,-101.68997,2.82857,-63.59843
30.17600,-101.26298,2.93390,-63.14798
30.18800,-101.04726,2.99147,-62.97529
30.21000,-100.71947,3.14431,-62.68057
30.22200,-100.57363,3.26453,-62.61985
30.24400,-100.35257,3.51974,-62.67858
30.25600,-100.26141,3.65456,-62.72546
30.27800,-100.14520,3.87900,-62.74331
30.30000,-100.07469,4.11263,-62.73386
30.31200,-100.04450,4.24849,-62.75256
30.33400,-99.99458,4.47991,-62.83197
30.34600,-99.96897,4.56727,-62.82552
30.36800,-99.94409,4.67052,-62.67654
30.38000,-99.93743,4.73172,-62.61789
30.40200,-99.93425,4.86157,-62.50757
30.42400,-99.96088,4.98299,-62.35128
30.43600,-99.99754,5.02352,-62.20885
30.45800,-100.10738,5.07245,-61.90427
30.47000,-100.18281,5.09999,-61.75628
30.49200,-100.34963,5.17787,-61.58371
30.50400,-100.46239,5.22769,-61.51146
30.52600,-100.68942,5.30419,-61.44476
30.53800,-100.82037,5.33705,-61.48222
30.56000,-101.06575,5.36490,-61.56730
30.58200,-101.30003,5.35642,-61.70009
30.59400,-101.42308,5.33932,-61.79032
30.61600,-101.65032,5.28593,-62.01892
30.62800,-101.77154,5.25497,-62.13245
30.65000,-101.99660,5.21366,-62.33068
30.66200,-102.13380,5.19455,-62.41769
30.68400,-102.32269,5.12642,-62.65483
30.70600,-102.53193,5.05453,-62.78334
30.71800,-102.66683,5.03608,-62.72283
30.74000,-102.85990,5.03005,-62.70166
30.75200,-102.93717,5.02379,-62.71658
30.77400,-103.05938,4.98867,-62.63778
30.78600,-103.10990,4.90586,-62.52107
30.80800,-103.17986,4.77049,-62.36116
30.82000,-103.17394,4.72665,-62.35064
30.84200,-103.15910,4.63276,-62.30911
30.86400,-103.11941,4.52194,-62.35600
30.87600,-103.10359,4.47605,-62.39332
30.89800,-103.05257,4.43778,-62.53921
30.91000,-103.01801,4.44423,-62.66117
30.93200,-102.92770,4.47704,-62.90542
30.94400,-102.87580,4.47916,-62.97915
30.96600,-102.72848,4.47465,-63.09871
30.98800,-102.52592,4.46878,-63.23373
31.00000,-102.39460,4.44904,-63.28918
31.02200,-102.11026,4.41518,-63.30487
31.03400,-101.93656,4.39973,-63.29008
31.05600,-101.59577,4.37099,-63.19322
31.06800,-101.39246,4.35739,-63.13930
31.09000,-101.02145,4.32664,-62.99288
31.11200,-100.65334,4.32197,-62.88838
31.12900,-100.36953,4.35877,-62.87069
31.14100,-100.16849,4.39585,-62.89280
31.16300,-99.81419,4.46720,-62.92207
31.17500,-99.62922,4.50585,-62.93423
31.19700,-99.30033,4.58527,-62.98417
31.20900,-99.11922,4.64739,-63.02105
31.23100,-98.79604,4.76820,-63.07996
31.25300,-98.47075,4.88636,-63.10107
31.26500,-98.29224,4.94152,-63.10621
31.28700,-97.96374,5.02346,-63.08253
31.29900,-97.79288,5.06564,-63.05158
31.32100,-97.50154,5.15535,-62.90552
31.33300,-97.35653,5.20821,-62.83106
31.35500,-97.11543,5.31629,-62.73733
31.36700,-96.99593,5.37401,-62.68208
31.38900,-96.82902,5.47463,-62.59087
31.41100,-96.70133,5.59380,-62.50445
31.42300,-96.65601,5.67952,-62.47367
31.44500,-96.59636,5.83864,-62.47564
31.45700,-96.58485,5.91898,-62.45888
31.47900,-96.56773,6.03747,-62.39587
31.49100,-96.57693,6.07854,-62.33550
31.51300,-96.60867,6.15515,-62.28228
31.53500,-96.66703,6.24338,-62.23830
31.54700,-96.70572,6.28963,-62.20380
31.56900,-96.80205,6.34932,-62.17822
31.58100,-96.87301,6.36579,-62.13534
31.60300,-97.05340,6.40598,-62.02588
31.61500,-97.16178,6.44934,-62.00019
31.63700,-97.36737,6.54833,-61.99624
31.65900,-97.59172,6.60365,-62.01565
31.67100,-97.73309,6.61774,-61.97524
31.69300,-97.99458,6.64430,-61.91068
31.70500,-98.13309,6.67028,-61.92535
31.72700,-98.37160,6.71535,-61.94105
31.73900,-98.50046,6.71763,-61.94032
31.76100,-98.74680,6.67560,-61.86697
31.77300,-98.87862,6.65249,-61.84546
31.79500,-99.10321,6.63170,-61.84864
31.81700,-99.32339,6.61574,-61.88275
31.82900,-99.43748,6.59854,-61.92069
31.85100,-99.64938,6.54533,-61.98694
31.86300,-99.76517,6.52144,-62.03332
31.88500,-99.95573,6.51893,-62.15853
31.89700,-100.04478,6.53332,-62.25914
31.91900,-100.18318,6.53960,-62.35411
31.94100,-100.29345,6.50819,-62.39899
31.95300,-100.33871,6.46974,-62.37221
31.97500,-100.38617,6.40654,-62.31723
31.98700,-100.38937,6.38723,-62.31206
32.00900,-100.35365,6.35051,-62.35654
32.02100,-100.32261,6.31876,-62.38463
32.04300,-100.25867,6.24891,-62.36660
32.06500,-100.16959,6.21632,-62.39655
32.07700,-100.10187,6.21629,-62.42437
32.09900,-99.95943,6.21586,-62.52239
32.11100,-99.87182,6.20429,-62.55088
32.13300,-99.69675,6.17190,-62.56305
32.14500,-99.58216,6.16263,-62.60843
32.16700,-99.33779,6.17711,-62.75082
32.17900,-99.19269,6.17897,-62.80521
32.20100,-98.91267,6.16939,-62.89285
32.22300,-98.61709,6.14877,-62.93005
32.23500,-98.44804,6.15089,-62.93316
32.25700,-98.13290,6.15949,-62.89766
32.26900,-97.95627,6.17216,-62.87699
32.29100,-97.63522,6.19377,-62.80595
32.30300,-97.45681,6.19794,-62.75527
32.32500,-97.13490,6.21822,-62.72547
32.34700,-96.82517,6.26063,-62.72522
32.35900,-96.66105,6.29398,-62.73263
32.38100,-96.36707,6.35269,-62.75979
32.39300,-96.21425,6.37574,-62.75657
32.41500,-95.93873,6.41065,-62.76974
32.42700,-95.80590,6.43150,-62.77589
32.44900,-95.57576,6.48726,-62.80631
32.46129,-95.45717,6.52581,-62.81882
32.48300,-95.26833,6.59008,-62.88533
32.50500,-95.10420,6.64118,-62.92248
32.51700,-95.03080,6.67284,-62.91219
32.53900,-94.90455,6.73706,-62.88273
32.55100,-94.85441,6.77140,-62.88112
32.57300,-94.79779,6.82324,-62.78763
32.58500,-94.77874,6.85574,-62.75062
32.60700,-94.76563,6.91385,-62.68974
32.62900,-94.78096,6.97753,-62.69530
32.64100,-94.80148,7.00697,-62.66090
32.66300,-94.88834,7.05883,-62.59091
32.67500,-94.93988,7.08846,-62.56876
32.69700,-95.05740,7.13580,-62.54287
32.70900,-95.13907,7.15193,-62.51188
32.73100,-95.31940,7.18855,-62.47841
32.75300,-95.50230,7.23032,-62.47234
32.76500,-95.61239,7.25415,-62.49344
32.78700,-95.83687,7.29363,-62.51085
32.79900,-95.96867,7.30684,-62.50912
32.82100,-96.22079,7.32873,-62.48875
32.83300,-96.34949,7.34607,-62.50334
32.85500,-96.60658,7.36656,-62.50584
32.87700,-96.85811,7.37997,-62.44846
32.88900,-96.99150,7.37936,-62.44552
32.91100,-97.22073,7.36067,-62.39903
32.92300,-97.34576,7.35461,-62.40867
32.94500,-97.56785,7.35347,-62.46510
32.95700,-97.68546,7.35883,-62.50230
32.97900,-97.88717,7.36763,-62.58139
32.99100,-97.99500,7.37259,-62.59822
33.01300,-98.17959,7.37821,-62.59893
33.03500,-98.34335,7.37398,-62.58150
33.04700,-98.42555,7.37680,-62.56819
33.06900,-98.54967,7.38999,-62.55116
33.08100,-98.60910,7.40203,-62.51999
33.10300,-98.65576,7.40504,-62.53002
33.11500,-98.67062,7.38407,-62.53909
33.13200,-98.66357,7.34999,-62.52941
33.15400,-98.64256,7.31878,-62.59705
33.17600,-98.58339,7.30521,-62.68790
33.18800,-98.53567,7.30790,-62.74892
33.21000,-98.45478,7.29289,-62.80016
33.22200,-98.39810,7.28835,-62.81880
33.24400,-98.26509,7.29629,-62.93035
33.25600,-98.18292,7.31123,-62.97252
33.27800,-98.01683,7.34210,-63.00083
33.30000,-97.82600,7.36549,-63.01922
33.31200,-97.70461,7.37091,-63.01661
33.33400,-97.45351,7.35211,-62.92029
33.34600,-97.31149,7.34074,-62.86353
33.36800,-97.02527,7.32591,-62.72901
33.38000,-96.85870,7.31052,-62.69336
33.40200,-96.56756,7.27664,-62.65565
33.41400,-96.41397,7.26916,-62.65010
33.43600,-96.14059,7.28702,-62.71028
33.45800,-95.85904,7.32750,-62.85531
33.47000,-95.71145,7.34694,-62.94029
33.49200,-95.47294,7.36415,-62.95794
33.50400,-95.35302,7.37254,-62.94526
33.52600,-95.13751,7.41271,-62.95628
33.53800,-95.01194,7.43439,-62.98233
33.56000,-94.78622,7.42181,-62.96913
33.58200,-94.57005,7.39873,-62.93509
33.59400,-94.45888,7.39959,-62.90497
33.61600,-94.26653,7.39217,-62.90986
33.62800,-94.16920,7.38833,-62.92160
33.65000,-94.03362,7.38404,-62.82359
33.66200,-93.98600,7.38237,-62.77465
33.68400,-93.91900,7.41548,-62.73820
33.70600,-93.87679,7.45913,-62.75002
33.71800,-93.87650,7.47875,-62.72211
33.74000,-93.89390,7.50486,-62.71546
33.75200,-93.91725,7.50537,-62.71952
33.77400,-93.96217,7.51437,-62.80039
33.78600,-93.99888,7.52058,-62.81213
33.80800,-94.08128,7.52072,-62.81985
33.82000,-94.13501,7.51215,-62.82182
33.84200,-94.25436,7.49761,-62.81518
33.86400,-94.41785,7.48435,-62.78251
33.87600,-94.50874,7.49268,-62.75355
33.89800,-94.69408,7.51518,-62.79684
33.91000,-94.81137,7.52876,-62.80290
33.93200,-95.04490,7.54550,-62.78750
33.94400,-95.17623,7.56023,-62.79090
33.96600,-95.40622,7.58678,-62.80954
33.98800,-95.64342,7.61011,-62.80656
34.00000,-95.77392,7.61878,-62.77840
34.02200,-96.00221,7.63467,-62.69802
34.03400,-96.11804,7.63616,-62.69327
34.05600,-96.32544,7.63649,-62.65556
34.06800,-96.43578,7.63686,-62.63304
34.09000,-96.63762,7.64361,-62.60630
34.11200,-96.84047,7.66817,-62.61360
34.12400,-96.94492,7.69630,-62.64523
34.14600,-97.11237,7.74957,-62.65415
34.15800,-97.19893,7.76318,-62.65237
34.18000,-97.33538,7.77407,-62.60492
34.19200,-97.40538,7.79411,-62.59047
34.21400,-97.50093,7.84589,-62.54342
34.22600,-97.53932,7.87690,-62.52262
34.24800,-97.57201,7.89881,-62.45637
34.27000,-97.59368,7.89951,-62.35954
34.28200,-97.58932,7.90856,-62.33532
34.30400,-97.55741,7.93680,-62.26038
34.31600,-97.52470,7.95510,-62.22665
34.33800,-97.44854,7.96839,-62.12108
34.35000,-97.40602,7.97616,-62.05009
34.37200,-97.29572,8.02600,-61.95484
34.39400,-97.15742,8.07200,-61.95565
34.40600,-97.06835,8.08550,-61.96469
34.42800,-96.89256,8.07899,-61.93935
34.44000,-96.79544,8.07870,-61.94004
34.46200,-96.57669,8.09780,-61.99563
34.47400,-96.44672,8.10890,-62.06453
34.49600,-96.20344,8.10367,-62.11816
34.50829,-96.06985,8.08622,-62.11681
34.53000,-95.83134,8.05404,-62.09688
34.55200,-95.58349,8.05988,-62.13195
34.56400,-95.44801,8.07402,-62.14646
34.58600,-95.21032,8.09144,-62.14405
34.59800,-95.08394,8.08990,-62.13526
34.62000,-94.84561,8.07048,-62.06696
34.63200,-94.72070,8.06258,-62.02326
34.65400,-94.49750,8.06990,-61.94518
34.67600,-94.28299,8.06097,-61.85737
34.68800,-94.18388,8.04697,-61.80209
34.71000,-94.01199,8.02404,-61.73181
34.72200,-93.92654,8.03551,-61.71584
34.74400,-93.73261,7.99152,-61.84457
34.75600,-93.66656,7.95079,-61.85367
34.77800,-93.53930,7.90837,-61.93378
34.80000,-93.43958,7.84209,-62.13274
34.81200,-93.38898,7.80116,-62.26500
34.83400,-93.33475,7.73797,-62.43261
34.84600,-93.32285,7.69737,-62.52818
34.86800,-93.30932,7.64840,-62.77082
34.88000,-93.32703,7.62638,-62.89583
34.90200,-93.38872,7.59726,-63.01168
34.91400,-93.43503,7.59442,-63.06135
34.93600,-93.53803,7.58967,-63.12290
34.95800,-93.65588,7.58263,-63.10138
34.97000,-93.72526,7.57896,-63.03662
34.99200,-93.86205,7.55805,-62.88396
35.00400,-93.93555,7.54551,-62.82050
35.02600,-94.08713,7.52745,-62.68900
35.03800,-94.18063,7.51037,-62.63093
35.06000,-94.36718,7.49248,-62.56487
35.08200,-94.56454,7.49206,-62.58526
35.09400,-94.68681,7.49895,-62.62870
35.11600,-94.92460,7.53113,-62.73847
35.13300,-95.10713,7.56220,-62.85601
35.14500,-95.23508,7.58054,-62.94050
35.16700,-95.46718,7.61780,-63.06770
35.17900,-95.59229,7.64597,-63.10380
35.20100,-95.79880,7.69506,-63.21503
35.22300,-95.98984,7.74394,-63.20437
35.23500,-96.08861,7.77328,-63.15715
35.25700,-96.24589,7.81507,-63.04918
35.26900,-96.32485,7.84086,-62.94165
35.29100,-96.45979,7.89547,-62.73904
35.30300,-96.52615,7.92760,-62.62367
35.32500,-96.62377,7.99533,-62.43629
35.34700,-96.70352,8.04605,-62.27270
35.35900,-96.74922,8.07041,-62.21680
35.38100,-96.81983,8.13316,-62.14964
35.39300,-96.84790,8.17686,-62.17197
35.41500,-96.86387,8.27245,-62.29272
35.42700,-96.86102,8.31885,-62.35372
35.44900,-96.83922,8.38555,-62.46151
35.46100,-96.81107,8.41449,-62.50984
35.48300,-96.71750,8.45304,-62.62474
35.50500,-96.61747,8.48190,-62.66577
35.51700,-96.56193,8.50211,-62.63955
35.53900,-96.42422,8.54784,-62.60725
35.55100,-96.33952,8.57429,-62.57307
35.57300,-96.19508,8.61926,-62.40709
35.58500,-96.10772,8.64636,-62.29662
35.60700,-95.92848,8.69488,-62.15218
35.62900,-95.73525,8.74876,-62.04369
35.64100,-95.62454,8.76262,-61.97791
35.66300,-95.42582,8.75595,-61.80417
35.67500,-95.31766,8.74599,-61.74091
35.69700,-95.09686,8.73191,-61.72689
35.70900,-94.97845,8.72652,-61.74799
35.73100,-94.76950,8.70643,-61.86335
35.75300,-94.56416,8.68066,-62.03148
35.76500,-94.45022,8.66448,-62.15396
35.78700,-94.25802,8.62158,-62.33848
35.79900,-94.15940,8.59702,-62.42844
35.82100,-94.00199,8.54455,-62.50466
35.83300,-93.91766,8.51526,-62.53108
35.85500,-93.77206,8.47466,-62.55036
35.86700,-93.69828,8.45590,-62.56490
35.88900,-93.56260,8.39299,-62.56855
35.91100,-93.44220,8.30180,-62.54563
35.92300,-93.39039,8.24244,-62.50655
35.94500,-93.32607,8.15008,-62.44213
35.95700,-93.29457,8.11518,-62.46728
35.97900,-93.25981,8.05444,-62.52808
35.99100,-93.25679,8.00510,-62.56322
36.01300,-93.29150,7.90784,-62.61830
36.03500,-93.34169,7.83955,-62.73888
36.04700,-93.37806,7.81260,-62.82840
36.06900,-93.44942,7.77068,-63.02745
36.08100,-93.50171,7.73087,-63.09396
36.10300,-93.62301,7.63757,-63.11943
36.11500,-93.68486,7.60231,-63.14019
36.13700,-93.80846,7.56303,-63.17950
36.15900,-93.94868,7.53284,-63.19698
36.17100,-94.03337,7.51521,-63.18609
36.19300,-94.19212,7.47380,-63.13640
36.20500,-94.28407,7.45023,-63.10700
36.22700,-94.45904,7.43431,-63.06237
36.23900,-94.55421,7.43654,-63.04611
36.26100,-94.73599,7.45274,-63.02728
36.27300,-94.83351,7.46063,-63.00987
36.29500,-95.02387,7.47228,-62.96153
36.31700,-95.20724,7.48746,-62.96729
36.32900,-95.30862,7.50700,-62.97366
36.35100,-95.48425,7.55051,-62.99984
36.36300,-95.57207,7.57920,-63.02705
36.38500,-95.71559,7.62299,-63.05152
36.39700,-95.79156,7.64918,-63.05281
36.41900,-95.91260,7.72624,-63.03545
36.44100,-96.02546,7.83274,-62.99817
36.45300,-96.07825,7.88999,-62.95074
36.47500,-96.15773,7.97111,-62.80482
36.48700,-96.19552,8.00589,-62.67807
36.50900,-96.25157,8.08107,-62.45811
36.52100,-96.26971,8.13900,-62.38649
36.54300,-96.27716,8.25843,-62.28677
36.55500,-96.27281,8.31753,-62.23724
36.57700,-96.24357,8.39862,-62.14230
36.59900,-96.19917,8.46470,-62.04510
36.61100,-96.16791,8.50812,-62.01216
36.63300,-96.09270,8.61155,-62.00269
36.64500,-96.04047,8.65789,-62.01759
36.66700,-95.94094,8.71659,-62.03892
36.67900,-95.88197,8.74948,-62.05431
36.70100,-95.75585,8.82127,-62.10311
36.72300,-95.60753,8.90321,-62.13260
36.73500,-95.52219,8.93666,-62.11943
36.75700,-95.36500,8.98174,-62.01535
36.76900,-95.27605,8.99654,-61.92611
36.79100,-95.10341,9.02011,-61.79655
36.80300,-95.00565,9.03835,-61.74022
36.82500,-94.82069,9.06239,-61.65482
36.84700,-94.63786,9.06330,-61.56253
36.85900,-94.54019,9.05264,-61.53199
36.88100,-94.35970,9.02808,-61.55954
36.89300,-94.26608,9.01251,-61.56912
36.91500,-94.10760,8.96972,-61.63334
36.92700,-94.02669,8.94440,-61.67675
36.94900,-93.88779,8.89582,-61.79985
36.96100,-93.81689,8.86531,-61.87392
36.98300,-93.69812,8.79342,-62.00496
37.00500,-93.58476,8.70266,-62.14835
37.01700,-93.53457,8.64938,-62.22105
37.03900,-93.45530,8.55338,-62.29668
37.05100,-93.41858,8.51335,-62.35734
37.07300,-93.35522,8.43186,-62.45905
37.08500,-93.33152,8.37346,-62.47246
37.10700,-93.31519,8.25585,-62.43199
37.13400,-93.31785,8.12334,-62.37511
37.14600,-93.32735,8.07625,-62.36137
37.15800,-93.34123,8.03087,-62.36599
37.18000,-93.39585,7.91828,-62.34367
37.19200,-93.43958,7.85997,-62.35365
37.21400,-93.51588,7.77032,-62.46227
37.22600,-93.56522,7.72365,-62.56226
37.24800,-93.66781,7.64171,-62.76687
37.27000,-93.78979,7.54831,-62.93951
37.28200,-93.86243,7.50276,-63.02810
37.30400,-93.99294,7.44712,-63.21216
37.31600,-94.06635,7.41174,-63.30527
37.33800,-94.21096,7.36810,-63.38454
37.35000,-94.29866,7.34981,-63.40887
37.37200,-94.45406,7.34440,-63.40364
37.39400,-94.60366,7.35949,-63.40271
37.40600,-94.68784,7.36626,-63.33736
37.42800,-94.83783,7.36874,-63.21797
37.44000,-94.91858,7.37567,-63.14354
37.46200,-95.04942,7.39561,-63.02367
37.47400,-95.12028,7.42050,-62.97713
37.49600,-95.23916,7.47815,-62.92016
37.50800,-95.30507,7.50112,-62.89675
37.53000,-95.41409,7.55123,-62.89831
37.55200,-95.51849,7.61520,-62.93066
37.56400,-95.57283,7.65840,-62.96512
37.58600,-95.66025,7.76413,-63.06614
37.59800,-95.69409,7.81918,-63.12045
37.62000,-95.75450,7.91637,-63.19936
37.63200,-95.78218,7.97789,-63.18328
37.65400,-95.81456,8.09379,-63.11101
37.67600,-95.82205,8.21875,-62.98640
37.68800,-95.81992,8.28612,-62.87839
37.71000,-95.80693,8.39708,-62.64465
37.72200,-95.78427,8.45284,-62.53299
37.74400,-95.72884,8.56443,-62.30938
37.75600,-95.69239,8.62581,-62.20616
37.77800,-95.61033,8.73522,-61.99657
37.80000,-95.52241,8.82341,-61.83516
37.81200,-95.47002,8.86993,-61.77143
37.83400,-95.35661,8.95012,-61.72463
37.84600,-95.29143,8.98794,-61.73575
37.86800,-95.16869,9.05600,-61.78643
37.88000,-95.10944,9.09024,-61.83401
37.90200,-94.99814,9.16983,-61.92641
37.91400,-94.92882,9.22005,-61.98492
37.93600,-94.79626,9.28085,-62.08379
37.95800,-94.66428,9.30478,-62.05515
37.97000,-94.59464,9.30833,-61.99000
37.99200,-94.46354,9.32041,-61.86887
38.00400,-94.38301,9.32513,-61.80910
38.02600,-94.23869,9.31409,-61.68807
38.03800,-94.15739,9.29650,-61.63704
38.06000,-94.02033,9.23546,-61.55213
38.08200,-93.89767,9.16295,-61.51198
38.09400,-93.83232,9.12790,-61.49940
38.11600,-93.74525,9.06393,-61.51796
38.12800,-93.70434,9.02388,-61.56772
38.15000,-93.63353,8.93768,-61.74174
38.16200,-93.61086,8.87346,-61.84064
38.18400,-93.60765,8.77407,-62.01496
38.19628,-93.59291,8.74065,-62.16416
38.21800,-93.56396,8.66447,-62.47699
38.24000,-93.54896,8.52919,-62.69107
38.25200,-93.55167,8.44250,-62.70872
38.27400,-93.55897,8.30477,-62.70150
38.28600,-93.56006,8.24211,-62.70268
38.30800,-93.57559,8.13912,-62.66553
38.32000,-93.60004,8.06725,-62.60789
38.34200,-93.66647,7.91873,-62.53856
38.36400,-93.74656,7.79928,-62.52459
38.37600,-93.79334,7.76300,-62.55000
38.39800,-93.90143,7.71177,-62.62365
38.41000,-93.96713,7.67675,-62.69767
38.43200,-94.08941,7.59211,-62.80029
38.44400,-94.16278,7.54525,-62.85000
38.46600,-94.29115,7.48800,-62.96326
38.48800,-94.40762,7.43216,-63.09724
38.50000,-94.46417,7.39577,-63.15818
38.52200,-94.56590,7.32263,-63.23473
38.53400,-94.62609,7.28863,-63.28633
38.55600,-94.71625,7.27109,-63.39311
38.56800,-94.76454,7.27370,-63.45869
38.59000,-94.86983,7.28769,-63.45861
38.60200,-94.93182,7.30162,-63.43858
38.62400,-95.03558,7.34952,-63.37131
38.64600,-95.13099,7.41425,-63.28588
38.65800,-95.18120,7.46277,-63.21065
38.68000,-95.25395,7.56347,-63.07537
38.69200,-95.28575,7.60076,-63.01008
38.71400,-95.33292,7.65416,-62.89329
38.72600,-95.34942,7.69355,-62.81553
38.74800,-95.36218,7.78829,-62.72071
38.77000,-95.36859,7.90229,-62.67064
38.78200,-95.37035,7.95756,-62.63643
38.80400,-95.37047,8.02654,-62.56893
38.81600,-95.37618,8.08885,-62.53689
38.83800,-95.37038,8.25232,-62.58225
38.85000,-95.36128,8.35218,-62.62286
38.87200,-95.32446,8.49829,-62.66934
38.89400,-95.29278,8.61557,-62.56969
38.90600,-95.27261,8.68213,-62.46797
38.92800,-95.19717,8.83072,-62.33605
38.94000,-95.14903,8.90996,-62.21357
38.96200,-95.04639,9.00768,-61.95079
38.97400,-94.99625,9.04286,-61.77719
38.99600,-94.89624,9.10972,-61.55273
39.00800,-94.83398,9.16299,-61.48182
39.03000,-94.72493,9.27349,-61.39612
39.05200,-94.63326,9.36473,-61.33358
39.06400,-94.58074,9.38995,-61.33351
39.08600,-94.49388,9.43723,-61.34348
39.09800,-94.44584,9.46394,-61.37686
39.12000,-94.35632,9.50599,-61.44045
39.13700,-94.29233,9.52562,-61.50528
39.14900,-94.24519,9.52483,-61.54291
39.17100,-94.15698,9.49581,-61.60144
39.19300,-94.06578,9.45548,-61.67518
39.20500,-94.01685,9.43581,-61.68835
39.22700,-93.93533,9.38957,-61.68438
39.23900,-93.89221,9.35831,-61.64937
39.26100,-93.81630,9.28408,-61.57891
39.27300,-93.78796,9.23309,-61.53631
39.29500,-93.75152,9.13676,-61.45245
39.31700,-93.72932,9.04031,-61.42265
39.32900,-93.71895,8.98781,-61.44332
39.35100,-93.71389,8.88078,-61.52222
39.36300,-93.71821,8.81313,-61.59985
39.38500,-93.73594,8.68558,-61.78058
39.39700,-93.74894,8.61841,-61.88826
39.41900,-93.78159,8.48787,-62.08217
39.44100,-93.82577,8.34743,-62.26358
39.45300,-93.85674,8.26899,-62.34650
39.47500,-93.91370,8.11634,-62.49834
39.48700,-93.94769,8.04272,-62.58317
39.50900,-94.01094,7.92836,-62.69783
39.52100,-94.04388,7.86632,-62.75310
39.54300,-94.10735,7.75870,-62.82861
39.55500,-94.14480,7.69487,-62.84934
39.57700,-94.22673,7.58137,-62.84264
39.59900,-94.31081,7.49595,-62.82103
39.61100,-94.36089,7.45489,-62.81419
39.63300,-94.45768,7.40362,-62.83184
39.64500,-94.50661,7.38178,-62.87550
39.66700,-94.59283,7.33858,-62.95446
39.67900,-94.64422,7.31884,-63.00108
39.70100,-94.72575,7.30590,-63.05992
39.72300,-94.79853,7.29764,-63.15298
39.73500,-94.84171,7.28831,-63.19352
39.75700,-94.91471,7.29502,-63.22989
39.76900,-94.95696,7.31415,-63.26374
39.79100,-95.00901,7.37007,-63.30304
39.80300,-95.03225,7.40633,-63.32191
39.82500,-95.07599,7.47565,-63.28341
39.84700,-95.11473,7.56725,-63.19965
39.85900,-95.12249,7.62439,-63.14657
39.88100,-95.13432,7.72445,-63.00000
39.89300,-95.13951,7.77438,-62.87916
39.91500,-95.15315,7.87039,-62.61816
39.92700,-95.14632,7.94913,-62.54999
39.94900,-95.12041,8.10758,-62.49286
39.96100,-95.10436,8.18091,-62.43209
39.98300,-95.07211,8.28923,-62.33481
40.00500,-95.04073,8.40747,-62.24586
40.01700,-95.01521,8.49240,-62.21877
40.03900,-94.96970,8.65258,-62.17862
40.05100,-94.94157,8.72441,-62.14212
40.07300,-94.87646,8.83098,-62.08266
40.08500,-94.84906,8.89386,-62.04576
40.10700,-94.77837,9.03362,-61.98898
40.12900,-94.70408,9.17838,-61.92589
40.14100,-94.65148,9.24209,-61.88163
40.16300,-94.57906,9.31796,-61.74625
40.17500,-94.54556,9.33713,-61.62709
40.19700,-94.48847,9.40283,-61.47340
40.20900,-94.44253,9.46200,-61.45147
40.23100,-94.37160,9.54723,-61.40498
40.24329,-94.34087,9.56703,-61.36936
40.26600,-94.28384,9.58074,-61.27903
40.28800,-94.23315,9.59317,-61.23604
40.30000,-94.20630,9.60849,-61.22565
40.32200,-94.14874,9.62444,-61.26308
40.33400,-94.12031,9.60761,-61.26832
40.35600,-94.08225,9.53456,-61.22654
40.36800,-94.06147,9.49457,-61.22912
40.39000,-94.01791,9.43974,-61.34690
40.40200,-93.98872,9.40162,-61.42273
40.42400,-93.96548,9.29261,-61.51165
40.44600,-93.96569,9.17045,-61.56557
40.45800,-93.96968,9.11435,-61.61568
40.48000,-93.96449,9.02796,-61.73856
40.49200,-93.97052,8.97407,-61.79515
40.51400,-93.99421,8.84479,-61.88268
40.52600,-94.00742,8.76477,-61.89995
40.54800,-94.03891,8.62462,-61.95895
40.57000,-94.05862,8.49329,-62.04947
40.58200,-94.07978,8.41955,-62.10720
40.60400,-94.12279,8.27238,-62.18386
40.61600,-94.14669,8.18705,-62.24055
40.63800,-94.19196,8.04119,-62.34535
40.65000,-94.22478,7.97207,-62.41686
40.67200,-94.28407,7.83601,-62.56693
40.69400,-94.35345,7.70783,-62.70155
40.70600,-94.39138,7.64708,-62.76915
40.72800,-94.47242,7.55374,-62.90145
40.74000,-94.50886,7.50934,-62.97769
40.76200,-94.56891,7.44393,-63.13027
40.77400,-94.59941,7.40449,-63.13703
40.79600,-94.66251,7.34316,-63.12441
40.80800,-94.68819,7.32472,-63.10798
40.83000,-94.72385,7.29005,-63.06256
40.85200,-94.76051,7.24963,-63.02813
40.86400,-94.77824,7.23707,-62.98267
40.88600,-94.81085,7.24208,-62.94270
40.89800,-94.82512,7.25400,-62.93837
40.92000,-94.83870,7.29816,-62.93731
40.93200,-94.85034,7.32152,-62.91867
40.95400,-94.86850,7.36508,-62.90475
40.97600,-94.87676,7.42169,-62.92323
40.98800,-94.87454,7.46309,-62.95613
41.01000,-94.86212,7.54439,-63.01926
41.02200,-94.85548,7.59333,-63.03077
41.04400,-94.83292,7.68437,-63.04784
41.05600,-94.82035,7.74633,-63.01184
41.07800,-94.78118,7.88088,-62.91781
41.09000,-94.76836,7.95006,-62.85639
41.11200,-94.74480,8.08705,-62.62420
41.13900,-94.70353,8.27696,-62.39691
41.15100,-94.67834,8.35827,-62.30949
41.16300,-94.64706,8.43553,-62.19847
41.18500,-94.60023,8.57489,-61.91775
41.19700,-94.57036,8.64496,-61.80656
41.21900,-94.51051,8.77205,-61.64537
41.24100,-94.44527,8.88240,-61.53956
41.25300,-94.42206,8.93898,-61.50468
41.27500,-94.38438,9.04686,-61.46658
41.28700,-94.35488,9.10592,-61.50233
41.30900,-94.30106,9.20598,-61.61384
41.32100,-94.28680,9.25232,-61.62436
41.34300,-94.26987,9.34603,-61.64516
41.35500,-94.25629,9.39167,-61.67055
41.37700,-94.23525,9.46933,-61.65410
41.39900,-94.19983,9.52369,-61.56636
41.41100,-94.18930,9.53404,-61.49405
41.43300,-94.16660,9.55313,-61.35303
41.44500,-94.14774,9.56270,-61.28626
41.46700,-94.12148,9.56035,-61.12323
41.47900,-94.10708,9.54583,-61.04714
41.50100,-94.09225,9.48555,-60.95186
41.52300,-94.08658,9.42020,-60.92561
41.53500,-94.08913,9.38911,-60.95995
41.55700,-94.11136,9.33686,-61.09912
41.56900,-94.12324,9.30536,-61.20736
41.59100,-94.16045,9.22890,-61.44243
41.60300,-94.18073,9.17459,-61.56843
41.62500,-94.22369,9.07058,-61.74761
41.63729,-94.24149,9.01095,-61.86538
41.65900,-94.27409,8.90626,-62.00191
41.68100,-94.30401,8.77851,-62.09270
41.69300,-94.32079,8.69902,-62.11284
41.71500,-94.34263,8.55351,-62.06355
41.72700,-94.35918,8.47864,-62.06220
41.74900,-94.38469,8.34464,-62.08199
41.76100,-94.41022,8.27473,-62.08762
41.78300,-94.46201,8.15612,-62.10759
41.80500,-94.50716,8.04647,-62.19615
41.81700,-94.52878,7.97912,-62.27880
41.83900,-94.57248,7.86157,-62.39724
41.85100,-94.60138,7.80218,-62.46035
41.87300,-94.65318,7.72051,-62.62499
41.88500,-94.66952,7.68017,-62.72770
41.90700,-94.69626,7.58360,-62.89650
41.92900,-94.72179,7.47851,-63.00103
41.94100,-94.73280,7.42806,-63.05824
41.96300,-94.73402,7.36613,-63.18853
41.97500,-94.73627,7.35119,-63.25181
41.99700,-94.75052,7.32147,-63.27736
42.00900,-94.75178,7.30422,-63.28574
42.03100,-94.75920,7.28836,-63.27362
42.04300,-94.76067,7.30622,-63.25161
42.06500,-94.74718,7.37517,-63.21102
42.08700,-94.72330,7.43009,-63.15217
42.09900,-94.71059,7.45099,-63.11161
42.12100,-94.68669,7.48622,-62.97536
42.13300,-94.67025,7.51423,-62.90168
42.15500,-94.62286,7.57888,-62.90398
42.16700,-94.59810,7.62176,-62.90048
42.18900,-94.55962,7.70694,-62.83857
42.21100,-94.53040,7.81010,-62.83328
42.22300,-94.50647,7.87448,-62.84294
42.24500,-94.47385,8.00368,-62.80412
42.25700,-94.46007,8.07761,-62.75896
42.27900,-94.43516,8.21970,-62.67447
42.29100,-94.41082,8.29108,-62.60450
42.31300,-94.37022,8.42089,-62.49038
42.33500,-94.32835,8.54841,-62.34433
42.34700,-94.30271,8.61897,-62.25397
42.36900,-94.24658,8.73207,-62.09338
42.38100,-94.22301,8.79182,-61.99699
42.40300,-94.19090,8.89474,-61.78725
42.41500,-94.17655,8.94808,-61.67439
42.43700,-94.15705,9.05743,-61.60168
42.44900,-94.15132,9.11655,-61.58036
42.47100,-94.14359,9.22324,-61.60090
42.49300,-94.14706,9.31018,-61.64340
42.50500,-94.15034,9.35553,-61.64680
42.52700,-94.15934,9.42507,-61.63913
42.53900,-94.16407,9.45173,-61.62177
42.56100,-94.18292,9.47518,-61.53762
42.57300,-94.20121,9.48485,-61.47727
42.59500,-94.20674,9.50242,-61.44026
42.61700,-94.21363,9.50750,-61.44461
42.62900,-94.21822,9.49530,-61.44307
42.65100,-94.23432,9.45209,-61.37345
42.66300,-94.24779,9.42641,-61.35732
42.68500,-94.27092,9.37170,-61.33784
42.69700,-94.29861,9.33572,-61.32587
42.71900,-94.35751,9.27575,-61.32915
42.73129,-94.38773,9.24198,-61.39965
42.75400,-94.41724,9.17280,-61.61882
42.77600,-94.45197,9.08654,-61.83470
42.78800,-94.47492,9.02842,-61.92828
42.81000,-94.51698,8.90864,-62.05349
42.82200,-94.53159,8.84230,-62.09135
42.84400,-94.54816,8.71101,-62.16855
42.85600,-94.56347,8.62759,-62.17298
42.87800,-94.59209,8.47547,-62.19605
42.89000,-94.60957,8.40161,-62.24904
42.91200,-94.63844,8.30145,-62.38433
42.93400,-94.67059,8.22238,-62.52743
42.94600,-94.69197,8.16442,-62.59252
42.96800,-94.72882,8.02513,-62.64045
42.98000,-94.75079,7.96648,-62.62658
43.00200,-94.76302,7.88203,-62.67731
43.01400,-94.76733,7.82989,-62.71574
43.03600,-94.77715,7.72009,-62.76364
43.05800,-94.78646,7.62192,-62.79957
43.07000,-94.78460,7.57894,-62.85801
43.09200,-94.75504,7.53038,-62.99566
43.10400,-94.74374,7.50259,-63.04667
43.12600,-94.73871,7.44386,-63.03723
43.14300,-94.72673,7.39994,-63.06060
43.15500,-94.70959,7.38894,-63.07679
43.17700,-94.67831,7.39280,-63.14595
43.19900,-94.65465,7.40792,-63.21301
43.21100,-94.63374,7.42235,-63.25632
43.23300,-94.58300,7.45059,-63.28522
43.24500,-94.55639,7.46729,-63.29352
43.26700,-94.50549,7.50635,-63.22851
43.27900,-94.47929,7.52939,-63.19059
43.30100,-94.42365,7.59038,-63.12525
43.32300,-94.37107,7.67631,-63.06904
43.33500,-94.34530,7.72974,-63.05333
43.35700,-94.29398,7.82058,-63.04845
43.36900,-94.25951,7.87361,-63.02685
43.39100,-94.21294,7.96819,-62.91982
43.40300,-94.19279,8.02375,-62.84302
43.42500,-94.15034,8.15253,-62.75935
43.43700,-94.12684,8.22089,-62.71517
43.45900,-94.09981,8.33859,-62.58741
43.48100,-94.07021,8.44591,-62.49818
43.49300,-94.05981,8.50535,-62.44894
43.51500,-94.04091,8.61945,-62.35883
43.52700,-94.03571,8.69432,-62.31976
43.54900,-94.02322,8.82264,-62.24445
43.56100,-94.01982,8.87235,-62.20103
43.58300,-94.02985,8.95117,-62.09874
43.60500,-94.04191,9.04803,-62.01850
43.61700,-94.04599,9.10429,-61.99028
43.63900,-94.05536,9.19197,-61.96446
43.65100,-94.06845,9.22219,-61.93252
43.67300,-94.11368,9.27145,-61.82421
43.68500,-94.13374,9.30676,-61.78350
43.70700,-94.16767,9.36207,-61.77937
43.72900,-94.20314,9.40089,-61.75621
43.74100,-94.22606,9.40543,-61.72435
43.76300,-94.27119,9.39883,-61.68893
43.77500,-94.29707,9.39451,-61.68728
43.79700,-94.34250,9.38133,-61.66596
43.80900,-94.37197,9.36730,-61.65068
43.83100,-94.41759,9.32060,-61.67060
43.84300,-94.44050,9.28794,-61.69709
43.86500,-94.48782,9.23015,-61.71811
43.88700,-94.54017,9.17210,-61.79747
43.89900,-94.57074,9.13797,-61.86147
43.92100,-94.62422,9.05826,-61.96379
43.93300,-94.65609,9.00062,-62.02141
43.95500,-94.70349,8.90347,-62.14090
43.96700,-94.72498,8.85374,-62.19378
43.98900,-94.75020,8.77135,-62.32987
44.01100,-94.77121,8.66072,-62.43264
44.02300,-94.78879,8.59344,-62.43873
44.04500,-94.82060,8.46416,-62.40668
44.05700,-94.82906,8.41660,-62.42237
44.07900,-94.83523,8.34115,-62.45398
44.09100,-94.84019,8.28238,-62.44852
44.11300,-94.84378,8.16227,-62.45366
44.13500,-94.83038,8.05412,-62.48803
44.14700,-94.82071,8.00202,-62.53419
44.16900,-94.78236,7.90776,-62.66566
44.18100,-94.76657,7.84685,-62.72447
44.20300,-94.74995,7.74109,-62.84593
44.21500,-94.73136,7.70015,-62.93177
44.23700,-94.69602,7.65023,-63.12944
44.24900,-94.67814,7.62211,-63.23944
44.27100,-94.64949,7.56399,-63.32955
44.29300,-94.60887,7.52527,-63.41830
44.30500,-94.58223,7.51989,-63.44757
44.32700,-94.52618,7.52358,-63.42715
44.33900,-94.49506,7.52723,-63.39402
44.36100,-94.42300,7.51268,-63.26373
44.37300,-94.38391,7.50918,-63.18171
44.39500,-94.30766,7.53200,-63.05311
44.41700,-94.23621,7.56853,-62.95008
44.42900,-94.19576,7.59074,-62.90867
44.45100,-94.14558,7.64234,-62.82350
44.46300,-94.11681,7.67622,-62.81086
44.48500,-94.06520,7.75175,-62.81962
44.49700,-94.04107,7.78781,-62.83657
44.51900,-94.00399,7.85783,-62.87437
44.53128,-93.98548,7.90217,-62.88817
44.55300,-93.94913,7.99736,-62.96759
44.57500,-93.90772,8.10162,-63.04180
44.58700,-93.89211,8.14878,-63.06147
44.60900,-93.87807,8.23026,-63.01128
44.62100,-93.87068,8.28456,-62.95906
44.64300,-93.85450,8.40253,-62.83228
44.65500,-93.85558,8.46661,-62.75259
44.67700,-93.85989,8.57527,-62.50410
44.69900,-93.88622,8.67425,-62.27885
44.71100,-93.90269,8.74111,-62.15589
44.73300,-93.92427,8.86284,-62.01058
44.74500,-93.93041,8.91289,-61.95374
44.76700,-93.95457,8.95841,-61.80161
44.77900,-93.97609,8.97576,-61.74555
44.80100,-94.02499,9.02423,-61.72866
44.82300,-94.07179,9.08549,-61.81557
44.83500,-94.10932,9.11651,-61.86092
44.85700,-94.18854,9.15808,-61.97220
44.86900,-94.23525,9.17734,-62.05006
44.89100,-94.30905,9.21904,-62.15318
44.90300,-94.35581,9.24806,-62.18258
44.92500,-94.43171,9.27953,-62.14069
44.93700,-94.46976,9.27456,-62.08334
44.95900,-94.53912,9.24516,-61.91970
44.98100,-94.60278,9.22485,-61.69305
44.99300,-94.62801,9.20559,-61.61239
45.01500,-94.66269,9.16075,-61.51369
45.02700,-94.68215,9.12691,-61.45757
45.04900,-94.72794,9.05225,-61.41344
45.06100,-94.75462,9.01503,-61.43851
45.08300,-94.80872,8.95196,-61.57337
45.10500,-94.86461,8.89992,-61.76781
45.11700,-94.89487,8.86341,-61.91145
45.14400,-94.94744,8.76297,-62.27134
45.15600,-94.96553,8.71750,-62.41648
45.16800,-94.98113,8.67208,-62.50661
45.19000,-94.98719,8.58148,-62.65540
45.20200,-94.98597,8.53078,-62.68876
45.22400,-94.96537,8.43075,-62.70753
45.24600,-94.93810,8.31802,-62.65482
45.25800,-94.91585,8.25653,-62.62822
45.28000,-94.88506,8.15966,-62.51732
45.29200,-94.86103,8.11748,-62.48109
45.31400,-94.82020,8.04609,-62.43787
45.32600,-94.79613,8.00642,-62.42036
45.34800,-94.76323,7.93094,-62.44160
45.37000,-94.70747,7.87283,-62.54454
45.38200,-94.67737,7.84281,-62.64047
45.40400,-94.62300,7.78532,-62.83496
45.41600,-94.58921,7.75400,-62.92331
45.43800,-94.52831,7.71365,-63.11169
45.45000,-94.48499,7.69386,-63.22466
45.47200,-94.40566,7.66351,-63.39143
45.48400,-94.37086,7.65408,-63.41138
45.50600,-94.29260,7.64646,-63.40307
45.52800,-94.20400,7.64880,-63.40326
45.54000,-94.16032,7.65375,-63.35673
45.56200,-94.09460,7.67173,-63.18280
45.57400,-94.05846,7.69611,-63.09495
45.59600,-93.99377,7.75730,-62.94665
45.60800,-93.96568,7.78768,-62.87745
45.63000,-93.92535,7.84143,-62.72423
45.65200,-93.88493,7.90567,-62.65053
45.66400,-93.86482,7.94565,-62.64120
45.68600,-93.83098,8.02590,-62.62136
45.69800,-93.82003,8.06522,-62.61297
45.72000,-93.79901,8.12799,-62.58774
45.73200,-93.78541,8.16730,-62.58666
45.75400,-93.77018,8.22931,-62.63545
45.77600,-93.77381,8.29687,-62.63012
45.78800,-93.77393,8.34022,-62.63169
45.81000,-93.78716,8.41546,-62.61394
45.82200,-93.80053,8.46070,-62.59595
45.84400,-93.84198,8.56027,-62.50869
45.85600,-93.86739,8.61167,-62.44106
45.87800,-93.92787,8.70396,-62.35364
45.89000,-93.94990,8.74919,-62.33379
45.91200,-93.99880,8.82352,-62.22590
45.93400,-94.04544,8.88388,-62.12046
45.94600,-94.07124,8.90725,-62.06024
45.96800,-94.12755,8.94039,-61.96268
45.98000,-94.16512,8.95583,-61.89439
46.00200,-94.24195,8.97895,-61.80557
46.01400,-94.28982,8.99900,-61.79098
46.03600,-94.38218,9.04352,-61.83303
46.05800,-94.47493,9.07809,-61.94271
46.07000,-94.52501,9.08964,-61.98861
46.09200,-94.61501,9.10275,-62.02654
46.10400,-94.66033,9.09919,-62.01565
46.12600,-94.74194,9.09116,-61.95918
46.13800,-94.77940,9.08395,-61.91574
46.16000,-94.83428,9.05780,-61.88785
46.18200,-94.88305,9.01384,-61.87327
46.19400,-94.90907,8.98615,-61.88969
46.21600,-94.93904,8.93559,-61.94302
46.22800,-94.95828,8.89905,-61.96246
46.25000,-94.99458,8.84306,-61.96707
46.26200,-95.01043,8.80869,-61.98451
46.28400,-95.03645,8.74088,-62.05945
46.29600,-95.04689,8.70748,-62.09550
46.31800,-95.05523,8.64946,-62.22314
46.34000,-95.06293,8.59239,-62.35151
46.35200,-95.05900,8.55914,-62.40783
46.37400,-95.03880,8.49296,-62.48302
46.38600,-95.02370,8.45069,-62.50208
46.40800,-94.99444,8.36465,-62.53501
46.42000,-94.96872,8.32400,-62.54883
46.44200,-94.91438,8.24882,-62.58951
46.46400,-94.85771,8.17819,-62.60296
46.47600,-94.82774,8.14297,-62.60384
46.49800,-94.76740,8.08977,-62.64920
46.51000,-94.73721,8.06744,-62.65754
46.53200,-94.67684,8.03054,-62.69495
46.54400,-94.63905,8.00844,-62.72242
46.56600,-94.55633,7.96118,-62.76027
46.57800,-94.50924,7.93042,-62.77512
46.60000,-94.41396,7.87265,-62.80896
46.62200,-94.32117,7.83130,-62.87287
46.63400,-94.27625,7.80903,-62.89018
46.65600,-94.19775,7.78874,-62.96116
46.66800,-94.15174,7.79021,-63.02430
46.69000,-94.07142,7.79318,-63.11383
46.70200,-94.03366,7.79575,-63.13488
46.72400,-93.97485,7.81847,-63.11954
46.74600,-93.91863,7.85469,-63.04352
46.75800,-93.89102,7.87507,-63.01193
46.78000,-93.84110,7.91209,-62.89372
46.79200,-93.81274,7.92760,-62.86426
46.81400,-93.76049,7.96254,-62.77403
46.82600,-93.73318,7.98803,-62.73704
46.84800,-93.69794,8.03875,-62.68649
46.87000,-93.67397,8.07835,-62.60938
46.88200,-93.66731,8.09109,-62.57887
46.90400,-93.67678,8.12282,-62.53650
46.91600,-93.69230,8.15943,-62.52275
46.93800,-93.72562,8.24478,-62.53776
46.95000,-93.74400,8.29100,-62.61000
46.97200,-93.76759,8.36681,-62.72261
46.98400,-93.79733,8.39290,-62.72216
47.00600,-93.85631,8.44298,-62.62421
47.02800,-93.90883,8.51357,-62.50559
47.04000,-93.93874,8.55833,-62.43698
47.06200,-93.99386,8.60283,-62.27142
47.07400,-94.03084,8.62186,-62.19027
47.09600,-94.10016,8.67441,-62.09607
47.10800,-94.13991,8.71064,-62.05703
47.13000,-94.20889,8.78133,-62.03035
47.14700,-94.27122,8.80847,-61.96957
47.16900,-94.37334,8.80971,-61.84769
47.18100,-94.42863,8.82302,-61.79138
47.20300,-94.51924,8.87554,-61.81475
47.21500,-94.56439,8.89633,-61.88964
47.23700,-94.63966,8.90864,-62.02114
47.24900,-94.68047,8.90367,-62.07639
47.27100,-94.75919,8.91282,-62.16466
47.29300,-94.82125,8.93287,-62.23835
47.30500,-94.85558,8.93559,-62.24627
47.32700,-94.91213,8.92174,-62.18620
47.33900,-94.94146,8.89757,-62.14337
47.36100,-94.98360,8.86067,-62.08076
47.37300,-95.00512,8.85713,-62.04934
47.39500,-95.02811,8.85566,-62.05328
47.41700,-95.04076,8.83912,-62.07862
47.42900,-95.04752,8.81697,-62.05981
47.45100,-95.06357,8.76167,-61.99415
47.46300,-95.05896,8.74185,-61.98199
47.48500,-95.02784,8.69516,-62.02117
47.49700,-95.01883,8.65822,-62.06588
47.51900,-94.99934,8.58867,-62.15748
47.53100,-94.98213,8.56255,-62.21568
47.55300,-94.93208,8.52744,-62.41734
47.57500,-94.88235,8.48445,-62.54411
47.58700,-94.85419,8.44911,-62.57954
47.60900,-94.80691,8.37124,-62.60487
47.62100,-94.76811,8.34204,-62.62778
47.64300,-94.68510,8.29921,-62.65585
47.65500,-94.63740,8.27158,-62.66699
47.67700,-94.55650,8.20929,-62.68687
47.69900,-94.46297,8.15437,-62.67720
47.71100,-94.41011,8.13562,-62.67579
47.73300,-94.32391,8.09369,-62.63670
47.74500,-94.28264,8.07004,-62.64654
47.76700,-94.20045,8.02412,-62.66737
47.77900,-94.15745,8.00813,-62.69206
47.80100,-94.08184,7.98692,-62.80674
47.82300,-94.01342,7.97852,-62.93233
47.83500,-93.97554,7.97676,-63.00296
47.85700,-93.90722,7.97121,-63.03960
47.86900,-93.87511,7.96693,-63.07004
47.89100,-93.82234,7.96422,-63.07796
47.90300,-93.79783,7.96530,-63.03869
47.92500,-93.74994,7.98225,-62.98896
47.93700,-93.72865,7.99779,-62.96049
47.95900,-93.69901,8.02726,-62.90274
47.98100,-93.67873,8.05085,-62.83040
47.99300,-93.67169,8.06754,-62.79031
48.01500,-93.65070,8.09978,-62.72044
48.02700,-93.64973,8.11238,-62.68683
48.04900,-93.66419,8.12753,-62.62796
48.06100,-93.67859,8.14046,-62.61239
48.08300,-93.70515,8.17158,-62.68462
48.10500,-93.74459,8.21891,-62.79161
48.11700,-93.77074,8.24321,-62.84836
48.13900,-93.83588,8.29223,-62.92735
48.15100,-93.87084,8.32016,-62.95956
48.17300,-93.95683,8.37295,-62.94396
48.18500,-94.00239,8.40738,-62.92072
48.20700,-94.08757,8.47282,-62.83397
48.21929,-94.13016,8.49839,-62.78114
48.24100,-94.21057,8.53474,-62.63948
48.26300,-94.28371,8.58942,-62.51222
48.27500,-94.32429,8.62016,-62.44653
48.29700,-94.39293,8.66040,-62.32761
48.30900,-94.42803,8.67406,-62.24564
48.33100,-94.51854,8.68225,-62.13165
48.34300,-94.57066,8.69076,-62.09731
48.36500,-94.65641,8.72744,-62.14448
48.38700,-94.74136,8.77591,-62.23881
48.39900,-94.78797,8.78946,-62.28702
48.42100,-94.87661,8.81536,-62.43637
48.43300,-94.91673,8.83354,-62.51777
48.45500,-94.97063,8.86209,-62.60195
48.46700,-94.99445,8.86475,-62.60197
48.48900,-95.04163,8.84881,-62.51777
48.51100,-95.07590,8.81850,-62.36612
48.52300,-95.08981,8.81883,-62.30911
48.54500,-95.09672,8.81703,-62.22610
48.55700,-95.09960,8.81116,-62.18044
48.57900,-95.09422,8.79556,-62.10255
48.59100,-95.09046,8.78357,-62.04860
48.61300,-95.07935,8.75688,-62.04291
48.62500,-95.07146,8.74511,-62.04478
48.64700,-95.05632,8.71334,-62.07442
48.66900,-95.02956,8.67900,-62.19285
48.68100,-95.00697,8.66039,-62.29926
48.70300,-94.94932,8.63380,-62.51281
48.71500,-94.92300,8.61621,-62.60757
48.73700,-94.85474,8.56566,-62.71626
48.74900,-94.81261,8.52714,-62.72061
48.77100,-94.73879,8.46461,-62.64535
48.79300,-94.66036,8.41718,-62.60503
48.80500,-94.60970,8.39897,-62.61375
48.82700,-94.52365,8.35006,-62.56840
48.83900,-94.48258,8.32597,-62.55621
48.86100,-94.39431,8.29987,-62.54504
48.87300,-94.34720,8.28932,-62.53891
48.89500,-94.27229,8.26370,-62.51627
48.91700,-94.19968,8.23046,-62.44240
48.92900,-94.16094,8.20638,-62.42543
48.95100,-94.07405,8.16825,-62.47809
48.96300,-94.03040,8.14854,-62.54385
48.98500,-93.96420,8.09363,-62.67167
48.99700,-93.92708,8.06567,-62.74485
49.01900,-93.86354,8.02602,-62.88784
49.03100,-93.83607,8.00970,-62.93335
49.05300,-93.79137,8.00036,-63.01410
49.07500,-93.75778,7.98258,-63.04752
49.08700,-93.74908,7.97134,-63.02852
49.10900,-93.74191,7.97551,-63.03358
49.12100,-93.73725,7.99285,-63.03416
49.14800,-93.72418,8.01568,-62.99773
49.16000,-93.72007,8.01308,-62.94956
49.17200,-93.72859,8.01727,-62.86642
49.19400,-93.74941,8.04057,-62.70314
49.21600,-93.75945,8.07710,-62.64121
49.22800,-93.76111,8.08810,-62.64939
49.25000,-93.79968,8.07892,-62.64713
49.26200,-93.83496,8.08204,-62.64392
49.28400,-93.88633,8.11930,-62.68809
49.29600,-93.91884,8.14952,-62.76318
49.31800,-94.00462,8.18846,-62.82843
49.34000,-94.10454,8.20714,-62.84696
49.35200,-94.16279,8.23544,-62.87446
49.37400,-94.23911,8.31259,-62.97451
49.38600,-94.28560,8.35080,-62.99139
49.40800,-94.36493,8.38753,-62.92676
49.42000,-94.41206,8.39619,-62.88103
49.44200,-94.47865,8.40956,-62.74602
49.46400,-94.54089,8.45646,-62.64198
49.47600,-94.57291,8.47722,-62.61345
49.49800,-94.65268,8.50387,-62.52948
49.51000,-94.69120,8.52248,-62.48314
49.53200,-94.77616,8.57580,-62.43459
49.54400,-94.81686,8.61152,-62.42065
49.56600,-94.89370,8.67324,-62.44184
49.57800,-94.93819,8.69410,-62.41724
49.60000,-95.01153,8.72657,-62.37897
49.62200,-95.06481,8.77550,-62.35515
49.63400,-95.08451,8.79752,-62.38354
49.65600,-95.10251,8.81668,-62.39772
49.66800,-95.11024,8.80949,-62.40799
49.69000,-95.11312,8.78990,-62.36346
49.70200,-95.10733,8.79201,-62.35427
49.72400,-95.09257,8.80764,-62.33722
49.74600,-95.08087,8.81143,-62.31060
49.75800,-95.07394,8.80416,-62.28181
49.78000,-95.05573,8.80329,-62.26318
49.79200,-95.05099,8.80903,-62.24689
49.81400,-95.01786,8.83716,-62.26560
49.82600,-94.99014,8.83639,-62.26702
49.84800,-94.94991,8.79589,-62.23615
49.87000,-94.89302,8.75783,-62.19189
49.88200,-94.85116,8.74385,-62.18605
49.90400,-94.77150,8.71957,-62.21558
49.91600,-94.72622,8.69866,-62.23725
49.93800,-94.64023,8.63010,-62.28235
49.95000,-94.58958,8.58738,-62.31793
49.97200,-94.51208,8.54404,-62.41090
49.98400,-94.46716,8.52872,-62.47232
50.00600,-94.39639,8.50125,-62.54906
50.02800,-94.33375,8.46094,-62.60129
50.04000,-94.29845,8.43668,-62.62458
50.06200,-94.23700,8.40062,-62.65465
50.07400,-94.20038,8.38921,-62.66836
50.09600,-94.13748,8.36992,-62.64124
50.10800,-94.10034,8.35197,-62.62157
50.13000,-94.02359,8.29036,-62.58352
50.15200,-93.95750,8.20501,-62.54216
50.16400,-93.92263,8.17223,-62.50895
50.18600,-93.85851,8.13521,-62.52652
50.19800,-93.83112,8.11814,-62.55218
50.22000,-93.81740,8.07268,-62.64448
50.23200,-93.81776,8.04720,-62.65416
50.25400,-93.82223,8.01432,-62.72834
50.26600,-93.83453,8.01526,-62.81294
50.28800,-93.86416,8.02699,-62.95052
50.31000,-93.88795,8.04013,-63.06942
50.32200,-93.89220,8.03305,-63.11700
50.34400,-93.90816,8.00855,-63.11582
50.35600,-93.91923,7.99944,-63.07026
50.37800,-93.93909,8.00220,-62.97752
50.39000,-93.94576,7.99955,-62.93648
50.41200,-93.98010,7.97749,-62.85223
50.43400,-94.02428,7.97491,-62.79683
50.44600,-94.05939,7.98358,-62.80942
50.46800,-94.12100,8.03733,-62.94213
50.48000,-94.16359,8.07171,-62.99019
50.50200,-94.25992,8.12467,-63.02085
50.51400,-94.30898,8.14772,-63.02295
50.53600,-94.39918,8.18819,-62.98060
50.55800,-94.48450,8.24678,-62.88958
50.57000,-94.52312,8.28023,-62.86907
50.59200,-94.58323,8.32345,-62.82904
50.60400,-94.61211,8.33691,-62.78479
50.62600,-94.67502,8.36322,-62.71449
50.63800,-94.70584,8.38844,-62.68426
50.66000,-94.75749,8.44364,-62.62521
50.67200,-94.79359,8.47344,-62.58073
50.69400,-94.85863,8.51918,-62.47050
50.71600,-94.93259,8.58006,-62.38929
50.72800,-94.96790,8.62166,-62.37736
50.75000,-95.01874,8.70114,-62.41950
50.76200,-95.04440,8.73156,-62.41700
50.78400,-95.08173,8.77690,-62.36028
50.79600,-95.09607,8.80776,-62.29982
50.81800,-95.10715,8.86130,-62.16246
50.84000,-95.11110,8.90761,-61.95569
50.85200,-95.10734,8.92017,-61.83825
50.87400,-95.08131,8.91669,-61.64874
50.88600,-95.06075,8.90588,-61.59852
50.90800,-95.02790,8.90022,-61.57347
50.92000,-95.00883,8.90647,-61.59782
50.94200,-94.97038,8.92003,-61.68737
50.96400,-94.93293,8.92632,-61.79493
50.97600,-94.91187,8.91206,-61.84197
50.99800,-94.88326,8.90265,-61.91870
51.01000,-94.86150,8.90597,-61.99566
51.03200,-94.79807,8.90771,-62.15387
51.04400,-94.75819,8.89604,-62.20372
51.06600,-94.68644,8.84343,-62.17062
51.07800,-94.64524,8.81708,-62.14393
51.10000,-94.55135,8.77967,-62.09399
51.12200,-94.46035,8.73984,-61.97863
51.13400,-94.41145,8.70047,-61.91109
51.15100,-94.35421,8.63789,-61.86098
51.17300,-94.26738,8.57954,-61.84661
51.18500,-94.22469,8.55751,-61.88294
51.20700,-94.15707,8.50681,-61.98124
51.21900,-94.13013,8.47919,-62.04161
51.24100,-94.09627,8.42847,-62.10594
51.26300,-94.06148,8.38377,-62.21482
51.27500,-94.03613,8.36711,-62.30522
51.29700,-93.99246,8.30535,-62.43707
51.30900,-93.97297,8.26437,-62.47451
51.33100,-93.92500,8.19147,-62.52871
51.34300,-93.89803,8.15602,-62.54310
51.36500,-93.85429,8.07645,-62.56334
51.38700,-93.83321,8.01382,-62.53138
51.39900,-93.82878,7.97963,-62.53595
51.42100,-93.84326,7.94961,-62.57822
51.43300,-93.84615,7.95186,-62.63503
51.45500,-93.87827,7.94335,-62.72353
51.46700,-93.89608,7.93585,-62.74103
51.48900,-93.95068,7.91700,-62.75402
51.51100,-93.99268,7.91317,-62.77443
51.52300,-94.01492,7.91813,-62.76743
51.54500,-94.05949,7.91461,-62.73526
51.55700,-94.08493,7.90987,-62.71384
51.57900,-94.12395,7.90791,-62.70301
51.59100,-94.14429,7.91492,-62.71486
51.61300,-94.19038,7.92677,-62.75117
51.62500,-94.22153,7.93673,-62.74377
51.64700,-94.29856,7.95883,-62.74277
51.66900,-94.39134,8.00106,-62.70782
51.68100,-94.44023,8.03622,-62.72269
51.70300,-94.52806,8.10479,-62.73903
51.71500,-94.57189,8.13953,-62.74584
51.73700,-94.65292,8.20485,-62.71380
51.74900,-94.68894,8.23823,-62.67233
51.77100,-94.74545,8.30168,-62.55318
51.79300,-94.80096,8.35377,-62.39550
51.80500,-94.82922,8.38285,-62.27536
51.82700,-94.86695,8.44639,-62.16033
51.83900,-94.88309,8.47837,-62.13103
51.86100,-94.91608,8.52123,-62.07555
51.87300,-94.93781,8.54653,-62.05806
51.89500,-94.97514,8.61895,-62.04427
51.90729,-94.98837,8.66450,-62.05645
51.92900,-95.00805,8.73444,-62.10631
51.95100,-95.04276,8.78273,-62.11072
51.96300,-95.06022,8.81126,-62.10295
51.98500,-95.05408,8.87594,-62.13647
51.99700,-95.03838,8.90927,-62.12654
52.01900,-95.01911,8.93242,-62.06136
52.03100,-95.00581,8.93897,-61.99934
52.05300,-94.96618,8.94804,-61.87935
52.07500,-94.92310,8.97491,-61.77221
52.08700,-94.89650,8.98515,-61.72774
52.10900,-94.85503,8.99372,-61.66800
52.12100,-94.83066,8.98329,-61.65475
52.14300,-94.78506,8.98213,-61.62366
52.15500,-94.75857,8.99058,-61.62958
52.17700,-94.71052,9.00760,-61.68464
52.19900,-94.64594,8.99516,-61.75980
52.21100,-94.61623,8.96857,-61.78946
52.23300,-94.55322,8.91678,-61.79930
52.24500,-94.51041,8.89365,-61.83096
52.26700,-94.43001,8.84498,-61.90057
52.27900,-94.39102,8.81227,-61.93293
52.30100,-94.33765,8.75178,-61.95621
52.31300,-94.29992,8.72375,-61.97047
52.33500,-94.23063,8.67966,-61.98306
52.35700,-94.18386,8.62127,-61.97738
52.36900,-94.15795,8.58419,-61.96001
52.39100,-94.11168,8.50555,-61.94514
52.40300,-94.09026,8.46699,-61.95772
52.42500,-94.05130,8.41686,-62.02771
52.43700,-94.02600,8.38325,-62.06479
52.45900,-93.99142,8.31057,-62.14745
52.48100,-93.96599,8.22989,-62.20456
52.49300,-93.95140,8.19394,-62.25141
52.51500,-93.93452,8.12388,-62.35984
52.52700,-93.92996,8.07676,-62.39342
52.54900,-93.94547,8.00826,-62.44434
52.56100,-93.95499,7.98348,-62.50473
52.58300,-93.98190,7.95589,-62.66319
52.60500,-94.00178,7.93518,-62.76338
52.61700,-94.01688,7.91948,-62.77984
52.63900,-94.04195,7.88295,-62.79116
52.65100,-94.06141,7.86083,-62.75790
52.67300,-94.09193,7.85404,-62.73925
52.68500,-94.11024,7.84681,-62.73803
52.70700,-94.13762,7.82483,-62.73746
52.71900,-94.15737,7.81134,-62.74635
52.74100,-94.20525,7.80889,-62.78916
52.76300,-94.26813,7.83688,-62.80107
52.77500,-94.29536,7.86144,-62.81885
52.79700,-94.36786,7.88941,-62.81608
52.80900,-94.40785,7.90527,-62.81283
52.83100,-94.47887,7.94439,-62.79703
52.84300,-94.51279,7.97763,-62.81472
52.86500,-94.56367,8.05033,-62.83527
52.88700,-94.62050,8.11297,-62.78582
52.89900,-94.65070,8.13976,-62.73885
52.92100,-94.68818,8.18983,-62.63524
