Time,Phi (degrees),Theta (degrees)
0.00000,0.00000,0.00000
0.01200,-2.04981,1.81344
0.03400,-5.27738,4.75449
0.04600,-6.69009,5.98360
0.06800,-8.99898,7.95203
0.08000,-9.96876,8.77110
0.10200,-11.63348,10.04147
0.11400,-12.35446,10.68126
0.13600,-13.50314,11.54979
0.15800,-14.34670,12.32252
0.17000,-14.73469,12.65925
0.19200,-15.40245,13.24228
0.20900,-15.77233,13.58028
0.22100,-15.99234,13.76753
0.24300,-16.38878,14.08919
0.25500,-16.53118,14.22337
0.27700,-16.75473,14.44974
0.29900,-16.96707,14.56641
0.31100,-17.06417,14.67888
0.33300,-17.21119,14.86198
0.34500,-17.27842,14.94102
0.36700,-17.42155,15.01115
0.37900,-17.46061,15.05349
0.40100,-17.58217,15.14951
0.42300,-17.56065,15.13697
0.43500,-17.59526,15.13466
0.45700,-17.61496,15.21627
0.46900,-17.61766,15.22940
0.49100,-17.64768,15.23108
0.50300,-17.64597,15.20389
0.52500,-17.69379,15.14627
0.54700,-17.74805,15.16164
0.55900,-17.80313,15.17847
0.58100,-17.74010,15.20077
0.59300,-17.74474,15.20361
0.61500,-17.74422,15.19580
0.62700,-17.76208,15.18785
0.64900,-17.75582,15.18545
0.66100,-17.76502,15.20124
0.68300,-17.77188,15.22603
0.70500,-17.72500,15.22071
0.71700,-17.73566,15.21204
0.73900,-17.75496,15.26912
0.75100,-17.74761,15.26006
0.77300,-17.75487,15.26026
0.78500,-17.73074,15.24815
0.80700,-17.75036,15.26285
0.82900,-17.71531,15.24547
0.84100,-17.71363,15.26542
0.86300,-17.69439,15.31179
0.87500,-17.70564,15.34603
0.89700,-17.69572,15.38239
0.90900,-17.67811,15.39714
0.93100,-17.65186,15.45392
0.95300,-17.66801,15.53688
0.96500,-17.70113,15.58147
0.98700,-17.73616,15.69795
0.99900,-17.71724,15.73307
1.02100,-17.64240,15.84002
1.03300,-17.63398,16.05305
1.05500,-17.48067,16.31738
1.06700,-17.44857,16.54923
1.08900,-17.43764,17.13322
1.11100,-17.44404,17.43778
1.12300,-17.48171,17.61103
1.14500,-17.50961,17.73757
1.15700,-17.50993,17.79322
1.17900,-17.45066,17.78653
1.20100,-17.48040,17.74048
1.21300,-17.49817,17.65968
1.23500,-17.56461,17.45124
1.24700,-17.58335,17.38118
1.26900,-17.60098,17.25929
1.28100,-17.60345,17.20696
1.30300,-17.65514,17.07206
1.31500,-17.71720,16.98610
1.33700,-17.77315,16.94192
1.35900,-17.80151,16.92492
1.37100,-17.79991,16.95442
1.39300,-17.84483,17.01539
1.40500,-17.87565,17.02345
1.42700,-18.06558,17.04688
1.43900,-18.17169,16.99776
1.46100,-18.42074,17.01670
1.47300,-18.51440,17.05018
1.49500,-18.71241,17.33499
1.51700,-18.83756,17.63145
1.52900,-18.92373,17.63672
1.55100,-19.11119,17.29767
1.56300,-19.18240,16.88026
1.58500,-19.59870,16.93222
1.59700,-19.57746,16.90513
1.61900,-19.03606,17.69498
1.64100,-18.24110,18.46984
1.65300,-17.64631,18.40682
1.67500,-16.23782,17.98959
1.68700,-15.48354,17.76420
1.70900,-14.08912,17.36055
1.72100,-13.26350,16.94312
1.74300,-12.69566,16.05270
1.75500,-12.80644,15.70967
1.77700,-12.15759,15.16586
1.79900,-10.66463,16.33471
1.81100,-9.92938,17.19781
1.83300,-8.12128,18.13250
1.84500,-7.32448,18.35947
1.86700,-6.35745,18.30705
1.88900,-5.82296,17.94421
1.90100,-5.60318,17.71237
1.92300,-5.46925,17.61455
1.93500,-5.45969,17.90706
1.95700,-5.22697,18.50785
1.96900,-5.07482,18.72302
1.99100,-4.95356,19.00246
2.00300,-4.99237,19.14487
2.02500,-5.19935,19.58883
2.04700,-5.46516,20.22023
2.05900,-5.54234,20.60654
2.08100,-5.89613,21.25346
2.09300,-6.20526,21.53266
2.11500,-6.76888,21.97229
2.12700,-7.01003,22.18580
2.14900,-7.27508,22.50959
2.16100,-7.32451,22.60218
2.18300,-7.13291,22.61458
2.21000,-6.57980,22.47814
2.22200,-6.33644,22.42977
2.23400,-6.15986,22.37313
2.25600,-5.83790,22.28741
2.26800,-5.68011,22.30892
2.29000,-5.32922,22.48570
2.30228,-5.12562,22.54829
2.32400,-4.65641,22.53274
2.34600,-4.22121,22.43118
2.35800,-3.97360,22.40138
2.38000,-3.51138,22.34859
2.39200,-3.27525,22.31521
2.41400,-2.80164,22.19478
2.42600,-2.57323,22.13766
2.44800,-2.24214,22.13823
2.47000,-1.92399,22.19104
2.48200,-1.81692,22.28321
2.50400,-1.68556,22.53749
2.51600,-1.68018,22.60972
2.53800,-1.78354,22.98589
2.55000,-1.88245,23.27015
2.57200,-2.27181,23.86186
2.59400,-2.88264,24.29309
2.60600,-3.24035,24.46406
2.62800,-3.88589,24.72300
2.64000,-4.25148,24.76368
2.66200,-5.05475,24.72562
2.67400,-5.27054,24.19724
2.69600,-5.61587,23.98210
2.70800,-6.11950,23.60732
2.73000,-7.72750,22.56178
2.75200,-9.47122,21.46421
2.76400,-10.38326,20.90198
2.78600,-11.95504,20.16188
2.79800,-12.86885,19.80177
2.82000,-14.41236,19.19838
2.83200,-15.16146,18.99758
2.85400,-16.50042,18.88304
2.87600,-17.68191,18.86937
2.88800,-18.27762,18.84127
2.91000,-19.04853,18.56510
2.92200,-19.30801,18.35178
2.94400,-19.76924,17.84617
2.95600,-19.95684,17.48578
2.97800,-20.29194,16.66365
3.00000,-20.65155,15.78840
3.01200,-20.82852,15.40619
3.03400,-21.08545,15.01123
3.04600,-21.17627,14.90822
3.06800,-21.28044,14.87027
3.08000,-21.32730,14.86081
3.10200,-21.40825,14.81604
3.11400,-21.44025,14.75613
3.13600,-21.50086,14.57523
3.15800,-21.56123,14.35357
3.17000,-21.59147,14.23277
3.19200,-21.63145,14.06385
3.20400,-21.62856,13.96789
3.22600,-21.65895,13.79538
3.23800,-21.67002,13.70642
3.26000,-21.70988,13.55168
3.28200,-21.74561,13.38823
3.29400,-21.80214,13.27691
3.31600,-21.94257,13.03300
3.32800,-22.04905,12.84287
3.35000,-22.24030,12.47142
3.36200,-22.33406,12.31600
3.38400,-22.46101,12.10922
3.40600,-22.55758,11.91138
3.41800,-22.58692,11.81616
3.44000,-22.61798,11.64108
3.45200,-22.59918,11.53864
3.47400,-22.57564,11.35479
3.48600,-22.55640,11.24987
3.50800,-22.49788,11.03944
3.52000,-22.46318,10.93955
3.54200,-22.38852,10.75261
3.56400,-22.30051,10.59476
3.57600,-22.23953,10.52196
3.59800,-22.10174,10.39797
3.61000,-22.01852,10.33532
3.63200,-21.85438,10.23659
3.64400,-21.77501,10.18635
3.66600,-21.61388,10.07876
3.68800,-21.43953,9.93360
3.70000,-21.35283,9.86683
3.72200,-21.23764,9.71603
3.73400,-21.16862,9.64240
3.75600,-21.05619,9.53700
3.76800,-21.00994,9.49110
3.79000,-20.94069,9.42288
3.80228,-20.89842,9.38210
3.82400,-20.83027,9.27203
3.84600,-20.72862,9.15662
3.85800,-20.67902,9.11329
3.88000,-20.60427,9.07314
3.89200,-20.57685,9.05990
3.91400,-20.53540,9.07352
3.92600,-20.52129,9.08739
3.94800,-20.53100,9.16474
3.97000,-20.55241,9.27688
3.98200,-20.57787,9.37615
4.00400,-20.70129,9.57144
4.01600,-20.81667,9.64448
4.03800,-21.12792,9.81691
4.05000,-21.40319,9.92387
4.07200,-22.07892,10.11673
4.09400,-22.90418,10.25854
4.10600,-23.44084,10.29230
4.12800,-24.60123,10.40812
4.14000,-25.32957,10.32430
4.16200,-26.87381,10.23447
4.17400,-27.76289,10.16202
4.19600,-29.50924,9.98205
4.21300,-30.97342,9.85063
4.23500,-32.94887,9.61016
4.24700,-34.07985,9.38228
4.26900,-36.20083,8.82203
4.28100,-37.32303,8.43640
4.30300,-38.79363,7.61912
4.31500,-39.26448,7.16977
4.33700,-39.68385,6.68261
4.34929,-39.62035,6.57116
4.37100,-39.06404,6.56111
4.39300,-38.36546,6.86383
4.40500,-37.92419,7.23670
4.42700,-36.94509,8.11571
4.43900,-36.28781,8.63403
4.46100,-34.90396,9.64281
4.47300,-34.00462,10.15286
4.49500,-32.11753,10.95915
4.51700,-30.13169,11.64775
4.52900,-29.00071,11.97963
4.55100,-26.76711,12.56121
4.56300,-25.52948,12.89614
4.58500,-23.28359,13.51119
4.59700,-22.12335,13.90253
4.61900,-19.79322,14.66834
4.64100,-17.45615,15.37246
4.65300,-16.20088,15.69047
4.67500,-13.99572,16.35299
4.68700,-12.92610,16.64542
4.70900,-11.13497,16.95131
4.72100,-10.12784,17.15033
4.74300,-8.30803,17.72070
4.75500,-7.34399,18.14578
4.77700,-5.64525,18.85872
4.79900,-4.21933,19.41759
4.81100,-3.63555,19.70769
4.83300,-2.74271,20.36568
4.84500,-2.21614,20.71179
4.86700,-1.31213,21.29673
4.87900,-0.88571,21.59851
4.90100,-0.18539,22.13070
4.92300,0.40570,22.60873
4.93500,0.65365,22.79504
4.95700,1.06307,23.06391
4.96900,1.33439,23.14854
4.99100,1.71982,23.28512
5.00300,1.90140,23.36040
5.02500,2.13989,23.47991
5.04700,2.25301,23.61314
5.05900,2.25368,23.67222
5.08100,2.29359,23.73282
5.09300,2.29427,23.75088
5.11500,2.14888,23.69983
5.12700,1.98019,23.60492
5.14900,1.48890,23.44633
5.16100,1.17676,23.38403
5.18300,0.57675,23.43543
5.20500,-0.11597,23.52275
5.21700,-1.00849,23.18102
5.23900,-2.52647,22.45615
5.25100,-3.37977,21.97155
5.27300,-5.38311,20.90102
5.28500,-6.41692,20.52655
5.30700,-8.34277,20.17209
5.32900,-10.40904,20.33454
5.34100,-11.70633,20.58356
5.36300,-13.88274,20.92773
5.37500,-14.92873,21.05730
5.39700,-16.81137,21.21245
5.40900,-17.73876,21.09677
5.43100,-18.61530,20.12385
5.45300,-19.31723,18.84765
5.46500,-19.59353,18.22536
5.48700,-20.05136,17.10916
5.49900,-20.23203,16.62008
5.52100,-20.51757,15.93019
5.53300,-20.63059,15.66540
5.55500,-20.82629,15.36616
5.56700,-20.91878,15.29570
5.58900,-21.02766,15.41901
5.61100,-21.09166,15.65047
5.62300,-21.10695,15.81268
5.64500,-21.14145,16.08372
5.65700,-21.16303,16.22306
5.67900,-21.22396,16.40915
5.69100,-21.26013,16.46328
5.71300,-21.29907,16.61654
5.73500,-21.32811,16.72687
5.74700,-21.35289,16.74039
5.76900,-21.42433,16.71667
5.78100,-21.46012,16.71381
5.80300,-21.51817,16.70207
5.81500,-21.54650,16.70654
5.83700,-21.60097,16.75020
5.85900,-21.64355,16.80145
5.87100,-21.65317,16.80108
5.89300,-21.68847,16.76416
5.90500,-21.69700,16.73211
5.92700,-21.71143,16.64100
5.93900,-21.72520,16.58526
5.96100,-21.73691,16.53631
5.97300,-21.73494,16.52881
5.99500,-21.72887,16.53269
6.01700,-21.71051,16.55816
6.02900,-21.70752,16.57256
6.05100,-21.68699,16.63286
6.06300,-21.68588,16.72263
6.08500,-21.72785,16.88907
6.09700,-21.77477,16.97080
6.11900,-21.86228,17.26899
6.14100,-21.97009,17.61596
6.15300,-22.04163,17.75591
6.17500,-22.18836,17.91242
6.18700,-22.27280,17.93193
6.21400,-22.46729,17.87904
6.22600,-22.55820,17.83261
6.23800,-22.63730,17.78158
6.26000,-22.77140,17.70191
6.28200,-22.89235,17.62509
6.29400,-22.95063,17.58989
6.31600,-23.06630,17.51189
6.32800,-23.11884,17.46928
6.35000,-23.20062,17.41902
6.36200,-23.24059,17.39099
6.38400,-23.32500,17.37548
6.40600,-23.43531,17.33228
6.41800,-23.51126,17.29022
6.44000,-23.67851,17.21509
6.45200,-23.77719,17.17934
6.47400,-24.03455,17.17030
6.48600,-24.19753,17.18739
6.50800,-24.56827,17.23911
6.52000,-24.84216,17.30881
6.54200,-25.53279,17.45114
6.56400,-26.38542,17.69257
6.57600,-26.99207,17.83386
6.59800,-28.41433,18.10620
6.61000,-29.36805,18.20887
6.63200,-31.42954,18.26460
6.65400,-33.77589,18.18425
6.66600,-35.20266,18.06884
6.68800,-37.90973,17.71998
6.70000,-39.36044,17.44551
6.72200,-40.93645,16.72283
6.73400,-41.36076,16.31537
6.75600,-41.65151,15.94568
6.76800,-41.57983,15.80045
6.79000,-41.07713,15.61570
6.80228,-40.55321,15.67688
6.82400,-39.28662,15.87945
6.84600,-37.58162,16.20436
6.85800,-36.53956,16.36259
6.88000,-34.30438,16.68212
6.89200,-32.93410,16.89062
6.91400,-30.18201,17.31890
6.93600,-27.26727,17.56465
6.94800,-25.74906,17.56627
6.97000,-23.09258,17.46353
6.98200,-21.74102,17.50710
7.00400,-19.38142,17.44886
7.01600,-18.01802,17.64527
7.03800,-15.41639,18.26223
7.05000,-13.99288,18.62091
7.07200,-11.42294,19.11103
7.09400,-8.89722,19.52023
7.10600,-7.43309,19.84959
7.12800,-4.73941,20.57934
7.14000,-3.49671,21.00941
7.16200,-1.47541,22.01438
7.17400,-0.43814,22.59525
7.19600,1.17465,23.68736
7.21800,2.66572,24.71886
7.23000,3.46021,25.09168
7.25200,4.63645,25.60681
7.26400,5.10614,25.88784
7.28600,5.83026,26.32714
7.29800,6.14745,26.48574
7.32000,6.70591,26.72838
7.33200,7.00058,26.77790
7.35400,7.40374,26.72384
7.37600,7.64686,26.59455
7.38800,7.71266,26.52600
7.41000,7.72812,26.40228
7.42200,7.77105,26.31855
7.44400,7.76811,26.11781
7.45600,7.71431,25.95011
7.47800,7.42389,25.49114
7.50000,6.93089,24.78595
7.51200,6.53646,24.35030
7.53400,5.55778,23.40686
7.54600,4.95006,22.80235
7.56800,3.35953,24.28349
7.58000,2.01982,24.34842
7.60200,-0.55504,24.09344
7.61400,-1.83904,23.96097
7.63600,-4.04366,23.37983
7.65800,-6.00931,22.52123
7.67000,-6.89828,22.18438
7.69200,-8.28015,22.04001
7.70400,-8.96416,22.25898
7.72600,-10.18218,23.15438
7.73800,-10.76629,23.71174
7.76000,-11.74479,24.72572
7.78200,-12.65821,25.64019
7.79400,-13.13321,25.98029
7.81600,-14.04346,26.39919
7.82800,-14.55923,26.59003
7.85000,-15.46082,26.85341
7.86200,-15.87867,27.06033
7.88400,-16.53792,27.39643
7.90600,-17.00317,27.65082
7.91800,-17.16352,27.81141
7.94000,-17.35976,28.05144
7.95200,-17.44774,28.10395
7.97400,-17.53426,28.10408
7.98600,-17.55581,28.09213
8.00800,-17.63060,27.92638
8.02000,-17.68168,27.73733
8.04200,-17.86002,27.12037
8.06400,-18.09241,26.14711
8.07600,-18.18943,25.51836
8.09800,-18.41734,24.21796
8.11000,-18.51318,23.46392
8.13200,-18.73433,21.97875
8.15400,-18.95071,20.41470
8.16600,-19.10789,19.49136
8.18800,-19.40289,17.54157
8.20000,-19.67113,16.38171
8.21700,-19.98856,15.02059
8.23900,-20.20624,14.02607
8.25100,-20.31807,13.72851
8.27300,-20.38917,13.43098
8.28500,-20.39343,13.32400
8.30700,-20.39799,13.17729
8.32900,-20.35328,13.04193
8.34100,-20.32344,12.97865
8.36300,-20.26506,12.86150
8.37500,-20.23580,12.81835
8.39700,-20.22104,12.76084
8.40900,-20.21870,12.72947
8.43100,-20.22872,12.67376
8.45300,-20.25521,12.58753
8.46500,-20.27538,12.53508
8.48700,-20.34940,12.43101
8.49900,-20.39842,12.37681
8.52100,-20.52547,12.25144
8.53300,-20.61254,12.18339
8.55500,-20.77713,12.05023
8.56700,-20.87098,11.99195
8.58900,-21.06533,11.89001
8.61100,-21.24700,11.85760
8.62300,-21.35269,11.88213
8.64500,-21.59859,11.94420
8.65700,-21.77415,11.99168
8.67900,-22.10778,12.18091
8.69100,-22.32507,12.33362
8.71300,-22.79313,12.62630
8.73500,-23.33080,12.91638
8.74700,-23.68387,13.07030
8.76900,-24.48245,13.33008
8.78100,-25.01884,13.46846
8.80300,-26.17458,13.79126
8.81500,-26.90960,13.92351
8.83700,-28.45258,14.24838
8.85900,-30.29068,14.40944
8.87100,-31.38256,14.43867
8.89300,-33.58654,14.38740
8.90500,-34.82546,14.40524
8.92700,-37.40739,14.09527
8.93900,-38.84296,13.71305
8.96100,-41.42854,12.88551
8.97300,-42.29837,12.31049
8.99500,-42.97772,11.32397
9.01700,-43.11288,10.50003
9.02900,-42.83815,10.21125
9.05100,-42.03671,9.93008
9.06300,-41.31302,9.97087
9.08500,-39.55785,10.29973
9.09700,-38.39739,10.61057
9.11900,-35.94365,11.34651
9.14100,-33.27864,12.15472
9.15300,-31.77339,12.61801
9.17500,-28.93254,13.45680
9.18700,-27.40610,13.92123
9.20900,-24.67469,14.70176
9.22100,-23.23460,15.00294
9.24300,-20.78480,15.23526
9.25500,-19.54698,14.98580
9.27700,-17.67850,14.50142
9.29900,-15.79675,14.51223
9.31100,-14.47128,15.00343
9.33300,-11.84591,16.22185
9.34500,-10.54540,16.88220
9.36700,-8.53495,17.94190
9.37900,-7.55364,18.36742
9.40100,-5.86249,19.34204
9.42300,-4.30284,20.41062
9.43500,-3.40606,21.15214
9.45700,-1.73717,21.99036
9.46900,-0.94308,22.25468
9.49100,0.37946,22.62722
9.50300,1.11200,22.79992
9.52500,2.45852,23.22503
9.54700,3.53953,23.67146
9.55900,4.05416,23.85768
9.58100,4.91337,23.99679
9.59300,5.27246,24.04365
9.61500,5.68872,24.07936
9.62700,5.75494,24.06516
9.64900,5.52547,23.79602
9.66100,5.26852,23.56557
9.68300,4.51396,23.10862
9.70500,3.42712,22.61342
9.71700,2.08652,22.54837
9.73900,-1.90184,22.54663
9.75100,-3.64262,22.06601
9.77300,-6.84095,21.18077
9.79500,-10.03022,20.02944
9.80700,-11.63093,19.32049
9.82900,-14.43277,18.42964
9.84100,-15.83072,18.09380
9.86300,-17.94186,17.47819
9.87500,-18.90140,17.20341
9.89700,-19.96286,16.45267
9.90900,-20.39051,15.84749
9.93100,-21.07755,14.76305
9.94300,-21.42481,14.17348
9.96500,-21.89150,13.51884
9.98700,-22.32554,13.18354
9.99900,-22.52075,13.16552
10.02100,-22.83205,13.34208
10.03300,-22.93439,13.56446
10.05500,-23.09722,13.99887
10.06700,-23.17367,14.18228
10.08900,-23.36269,14.43291
10.11100,-23.47404,14.64839
10.12300,-23.50424,14.71138
10.14500,-23.51590,14.76441
10.15700,-23.50977,14.76341
10.17900,-23.47043,14.69705
10.19100,-23.44506,14.59967
10.21800,-23.37894,14.30461
10.23000,-23.32040,14.13169
10.25200,-23.20791,13.66234
10.26400,-23.15119,13.37386
10.28600,-23.04771,12.79473
10.29800,-22.99909,12.47374
10.32000,-22.93657,11.95899
10.33200,-22.90973,11.73772
10.35400,-22.90067,11.39357
10.37600,-22.87828,11.10686
10.38800,-22.87947,10.95982
10.41000,-22.87447,10.70719
10.42200,-22.86333,10.58816
10.44400,-22.84558,10.40568
10.45600,-22.82319,10.32065
10.47800,-22.80125,10.20169
10.49029,-22.79038,10.15126
10.51200,-22.78839,10.07923
10.53400,-22.81167,9.96150
10.54600,-22.83368,9.90530
10.56800,-22.87643,9.81533
10.58000,-22.88385,9.76709
10.60200,-22.87190,9.69065
10.61400,-22.87316,9.67504
10.63600,-22.86833,9.61532
10.65800,-22.85912,9.55244
10.67000,-22.85667,9.52246
10.69200,-22.89391,9.46954
10.70400,-22.95093,9.47853
10.72600,-23.15909,9.52655
10.73800,-23.33836,9.54910
10.76000,-23.78971,9.52806
10.78200,-24.40674,9.40060
10.79400,-24.85179,9.22483
10.81600,-26.01455,8.76961
10.82800,-26.58995,8.43589
10.85000,-27.97836,7.48951
10.86200,-28.85465,6.42258
10.88400,-30.57116,3.91424
10.89600,-31.57969,2.39228
10.91800,-33.59007,-0.51401
10.94000,-35.01681,-2.92295
10.95200,-35.52472,-3.53685
10.97400,-35.69210,-3.46844
10.98600,-35.71126,-3.18309
11.00800,-35.31097,-2.29537
11.02000,-34.92783,-1.71104
11.04200,-33.94583,-0.40199
11.06400,-32.63826,1.08873
11.07600,-31.77800,1.96818
11.09800,-30.04646,3.58090
11.11000,-29.03456,4.41124
11.13200,-26.97748,5.76750
11.14400,-25.82324,6.45727
11.16600,-23.76622,7.67548
11.18800,-21.79399,8.85936
11.20000,-20.80847,9.51630
11.22200,-19.18270,10.79654
11.23400,-18.34451,11.40285
11.25600,-16.79899,12.33785
11.26800,-16.07040,12.76738
11.29000,-14.92634,13.54346
11.30228,-14.39024,13.89673
11.32400,-13.59263,14.65111
11.34600,-12.94648,15.61650
11.35800,-12.41184,16.09183
11.38000,-10.98002,16.80672
11.39200,-10.26468,17.18936
11.41400,-9.19986,18.02711
11.42600,-8.75498,18.56149
11.44800,-8.22648,19.77154
11.47000,-7.40770,20.97600
11.48200,-6.76257,21.56064
11.50400,-5.73134,22.69613
11.51600,-5.27180,23.24712
11.53800,-4.40586,23.82041
11.55000,-4.00592,24.01158
11.57200,-3.37643,24.45966
11.59400,-2.78516,24.97239
11.60600,-2.58417,25.27841
11.62800,-2.53739,25.76422
11.64000,-2.64253,25.96923
11.66200,-2.96177,26.17895
11.67400,-3.09624,26.19600
11.69600,-3.55117,26.04770
11.70800,-3.97869,25.93011
11.73000,-6.02334,25.19217
11.75200,-8.61798,24.48367
11.76400,-9.56988,23.93146
11.78600,-11.62963,22.63457
11.79800,-12.70047,21.96194
11.82000,-14.40993,21.08632
11.83200,-15.29083,20.88157
11.85400,-16.66305,20.58812
11.87600,-17.81674,20.20424
11.88800,-18.38873,20.02614
11.91000,-19.36412,19.72820
11.92200,-19.74103,19.38794
11.94400,-20.12907,18.68067
11.95600,-20.38879,18.15722
11.97800,-20.74244,17.16473
11.99029,-20.98061,16.54959
12.01200,-21.38260,15.46526
12.03400,-21.75431,14.52412
12.04600,-21.93349,14.08571
12.06800,-22.20094,13.32630
12.08000,-22.28309,13.00045
12.10200,-22.41824,12.51052
12.11400,-22.45379,12.27547
12.13600,-22.51593,11.83788
12.15800,-22.52546,11.41258
12.17000,-22.51581,11.22736
12.19200,-22.49693,10.97046
12.20400,-22.47874,10.83742
12.22100,-22.43687,10.64784
12.24300,-22.37942,10.40687
12.25500,-22.34490,10.28503
12.27700,-22.28391,10.05239
12.29900,-22.23007,9.82077
12.31100,-22.19169,9.69090
12.33300,-22.12760,9.48347
12.34500,-22.09703,9.39423
12.36700,-22.04060,9.23328
12.37900,-22.03337,9.18414
12.40100,-21.97598,9.11998
12.42300,-21.98796,9.04814
12.43500,-21.93145,8.99360
12.45700,-21.89868,8.91342
12.46900,-21.87916,8.88751
12.49100,-21.83733,8.82961
12.50300,-21.81978,8.80255
12.52500,-21.80138,8.79116
12.54700,-21.82002,8.79410
12.55900,-21.83399,8.80110
12.58100,-21.85029,8.78917
12.59300,-21.87051,8.76507
12.61500,-21.92604,8.71546
12.62700,-21.96771,8.70216
12.64900,-22.06910,8.72177
12.66100,-22.18520,8.79178
12.68300,-22.47313,8.88134
12.70500,-22.86760,8.80409
12.71700,-23.20767,8.69729
12.73900,-23.97886,8.40759
12.75100,-24.56161,8.12002
12.77300,-25.71497,7.61063
12.78500,-26.51175,7.24313
12.80700,-28.20313,6.32346
12.82900,-29.96347,4.75507
12.84100,-31.25713,3.72197
12.86300,-33.65246,1.88513
12.87500,-35.02895,0.86292
12.89700,-37.21457,-0.80266
12.90900,-38.16616,-1.38443
12.93100,-39.00501,-1.09578
12.95300,-39.32537,-0.19787
12.96500,-39.35994,0.42462
12.98700,-38.92449,1.68366
12.99900,-38.40189,2.37695
13.02100,-36.98034,3.69889
13.03300,-35.97456,4.41255
13.05500,-33.71181,5.74300
13.07700,-31.11087,7.07249
13.08900,-29.58560,7.78675
13.11100,-26.70062,9.01455
13.12300,-25.07413,9.65954
13.14500,-22.26049,10.70584
13.15700,-20.84812,11.27697
13.17900,-18.28807,12.39094
13.20100,-15.70154,13.62685
13.21300,-14.35665,14.30775
13.23500,-11.73274,15.58290
13.24700,-10.30054,16.26681
13.26900,-8.22689,17.28030
13.28100,-7.21285,17.74186
13.30300,-5.12464,18.66216
13.31500,-4.04649,19.05443
13.33700,-2.38030,19.85682
13.35900,-0.94813,20.70691
13.37100,-0.23580,21.12695
13.39300,1.01142,21.90459
13.40500,1.57124,22.41923
13.42700,2.44396,23.20726
13.43900,2.95023,23.53539
13.46100,3.73246,24.31380
13.47300,4.06049,24.59470
13.49500,4.56938,24.99808
13.51700,4.86355,25.36916
13.52900,4.94589,25.43147
13.55100,4.94628,25.50471
13.56300,4.83993,25.55730
13.58500,4.43579,25.52673
13.59700,4.06530,25.47437
13.61900,3.10234,25.30638
13.64100,1.58084,25.27104
13.65300,-0.05286,25.16336
13.67500,-2.23633,24.77337
13.68700,-3.73483,24.42740
13.70900,-6.39551,24.65074
13.72100,-7.61786,24.85104
13.74300,-9.51384,25.33625
13.75500,-10.38657,25.66186
13.77700,-11.70856,26.43765
13.79900,-12.90342,27.38384
13.81100,-13.50712,27.91760
13.83300,-14.57808,29.05600
13.84500,-15.07595,29.57566
13.86700,-15.95690,30.37068
13.87900,-16.41202,30.68161
13.90100,-16.96084,30.92971
13.92300,-17.41164,31.06173
13.93500,-17.57066,31.11999
13.95700,-17.81133,31.18019
13.96900,-17.90074,31.20759
13.99100,-18.05442,31.28782
14.00300,-18.12355,31.34401
14.02500,-18.22295,31.40895
14.04700,-18.27683,31.43655
14.05900,-18.30730,31.45993
14.08100,-18.36787,31.50537
14.09300,-18.40118,31.52195
14.11500,-18.46998,31.45808
14.12700,-18.52135,31.38921
14.14900,-18.64151,31.15557
14.16100,-18.71335,30.95424
14.18300,-18.84966,30.48706
14.20500,-19.03992,29.86127
14.22200,-19.16547,29.25624
14.23400,-19.28503,28.75568
14.25600,-19.50938,27.84749
14.26800,-19.62164,27.35166
14.29000,-19.81356,26.53783
14.30228,-19.91308,26.11880
14.32400,-20.11297,25.39726
14.34600,-20.36814,24.65764
14.35800,-20.51109,24.27522
14.38000,-20.76394,23.61901
14.39200,-20.89507,23.30496
14.41400,-21.09403,22.78726
14.42600,-21.19677,22.51018
14.44800,-21.35363,22.03851
14.47000,-21.50768,21.59158
14.48200,-21.59930,21.32511
14.50400,-21.78695,20.84256
14.51600,-21.89355,20.57214
14.53800,-22.11006,20.07485
14.55000,-22.22434,19.76950
14.57200,-22.42117,19.10033
14.59400,-22.69367,18.59013
14.60600,-22.82588,18.33187
14.62800,-23.06315,18.00380
14.64000,-23.23710,17.85775
14.66200,-23.71103,17.59363
14.67400,-24.07850,17.46725
14.69600,-24.94766,17.29791
14.70800,-25.51915,17.26763
14.73000,-26.80639,17.35921
14.75200,-28.35258,17.42488
14.76400,-29.30872,17.44177
14.78600,-31.32175,17.36836
14.79800,-32.54150,17.26963
14.82000,-34.97455,17.08971
14.83200,-36.37545,16.91244
14.85400,-38.86506,16.37020
14.87600,-40.46728,15.47754
14.88800,-40.85690,14.84572
14.91000,-41.13931,14.06173
14.92200,-40.90095,13.80373
14.94400,-40.08131,13.49506
14.95600,-39.40172,13.43227
14.97800,-37.79959,13.53926
15.00000,-35.91581,13.86995
15.01200,-34.78233,14.15431
15.03400,-32.43447,14.92015
15.04600,-31.06692,15.42612
15.06800,-28.44948,16.52463
15.08000,-27.00729,17.13814
15.10200,-24.34904,18.21070
15.11400,-22.91826,18.68657
15.13600,-20.47763,19.33315
15.15800,-18.28233,19.54852
15.17000,-17.05256,19.73885
15.19200,-14.67533,20.21143
15.20400,-13.49669,20.35478
15.22600,-11.96458,20.57995
15.24800,-10.72280,20.68297
15.26000,-9.86447,20.97910
15.28200,-8.27722,21.62090
15.29400,-7.49965,21.99921
15.31600,-6.14615,22.85016
15.32800,-5.53229,23.35597
15.35000,-4.55466,24.23033
15.36200,-4.02636,24.68785
15.38400,-3.08092,25.44107
15.39600,-2.60031,25.83551
15.41800,-1.77985,26.47755
15.44000,-0.96533,27.01343
15.45200,-0.52601,27.30889
15.47400,0.30250,27.85102
15.48600,0.71532,28.08613
15.50800,1.30821,28.43200
15.52000,1.50600,28.54704
15.54200,1.67156,28.64931
15.56400,1.62377,28.74586
15.57600,1.49783,28.78011
15.59800,1.00606,28.80969
15.61000,0.60137,28.78484
15.63200,-0.28774,28.64891
15.64400,-0.81859,28.52916
15.66600,-3.79612,26.92899
15.68800,-6.04473,25.56532
15.70000,-7.38192,24.83285
15.72200,-10.18303,23.38533
15.73400,-11.52069,22.80828
15.75600,-13.72953,22.13390
15.76800,-14.83979,21.94872
15.79000,-16.54288,21.97814
15.80200,-17.24783,22.11836
15.82400,-18.41292,22.53122
15.84600,-19.27745,22.57195
15.85800,-19.52836,22.61786
15.88000,-19.89358,22.64337
15.89200,-20.04521,22.65755
15.91400,-20.21483,22.71634
15.92600,-20.30642,22.68678
15.94800,-20.41536,22.52382
15.97000,-20.53511,22.29940
15.98200,-20.58518,22.13182
16.00400,-20.71703,21.78424
16.01600,-20.78881,21.58790
16.03800,-20.86620,21.22453
16.05000,-20.92672,21.00608
16.07200,-21.05040,20.54609
16.09400,-21.20658,19.97803
16.10600,-21.29452,19.65098
16.12800,-21.44501,19.16485
16.14000,-21.50356,18.98655
16.16200,-21.59057,18.72144
16.17400,-21.62642,18.59354
16.19600,-21.70740,18.40047
16.20800,-21.74509,18.31348
16.23500,-21.82509,18.06787
16.24700,-21.87028,17.93067
16.26900,-21.97129,17.70657
16.28100,-22.01807,17.62036
16.30300,-22.17942,17.49630
16.31500,-22.22202,17.43751
16.33700,-22.31078,17.31662
16.34900,-22.37148,17.26954
16.37100,-22.47281,17.17381
16.39300,-22.56345,17.09839
16.40500,-22.59748,17.08797
16.42700,-22.63556,17.16468
16.43900,-22.65988,17.26379
16.46100,-22.75072,17.40900
16.47300,-22.83433,17.42859
16.49500,-22.99516,17.39310
16.51700,-23.15787,17.32611
16.52900,-23.24227,17.29368
16.55100,-23.39537,17.21373
16.56300,-23.48726,17.16227
16.58500,-23.72345,17.04098
16.59700,-23.91918,16.95892
16.61900,-24.42774,16.80148
16.64100,-25.12696,16.69323
16.65300,-25.62523,16.68635
16.67500,-26.80548,16.71210
16.68700,-27.59564,16.83952
16.70900,-29.35818,17.03005
16.72100,-30.47489,17.09021
16.74300,-32.82055,17.17253
16.76500,-35.49886,17.21858
16.77700,-37.08285,17.18610
16.79900,-40.14056,16.92635
16.81100,-41.80276,16.63719
16.83300,-44.02464,15.96627
16.84500,-44.55865,15.32440
16.86700,-44.92096,14.21547
16.87900,-44.70679,13.74911
16.90100,-43.87154,13.00240
16.92300,-42.53988,12.63250
16.93500,-41.64136,12.55124
16.95700,-39.66791,12.76396
16.96900,-38.43638,13.01181
16.99100,-35.92245,13.61216
17.00300,-34.44998,13.94314
17.02500,-31.58653,14.60819
17.03729,-29.94784,14.99628
17.05900,-27.08543,15.60684
17.08100,-24.22961,16.08299
17.09300,-22.76478,16.21986
17.11500,-20.43358,16.11631
17.12700,-19.30821,16.07921
17.14900,-16.66781,17.26447
17.16100,-15.19477,17.97827
17.18300,-12.97464,19.30614
17.20500,-10.84376,20.51339
17.21700,-9.78854,21.12435
17.23900,-7.94019,22.28168
17.25100,-6.92286,22.83939
17.27300,-5.24742,23.74863
17.28500,-4.48717,24.18205
17.30700,-3.32874,24.77233
17.32900,-2.28158,25.30881
17.34100,-1.63546,25.58129
17.36300,-0.58075,25.93670
17.37500,-0.04138,26.22806
17.39700,0.81160,26.67748
17.40900,1.24746,26.88060
17.43100,2.05052,27.24086
17.44300,2.40861,27.39254
17.46500,2.86048,27.60633
17.48700,3.17753,27.67523
17.49900,3.25529,27.65039
17.52100,3.32228,27.69373
17.53300,3.28797,27.75818
17.55500,2.91946,27.89577
17.56700,2.61795,28.01895
17.58900,1.74317,28.23672
17.61100,-1.75653,28.83918
17.62300,-3.26252,28.36307
17.64500,-6.11492,27.43242
17.65700,-7.85288,26.96624
17.67900,-10.75631,26.40686
17.69100,-12.20952,26.12290
17.71300,-14.92749,25.84950
17.73500,-17.61079,25.89825
17.74700,-18.70299,25.87374
17.76900,-20.34672,25.84164
17.78100,-20.92225,25.82437
17.80300,-21.43792,25.51101
17.81500,-21.64875,25.40731
17.83700,-21.91053,25.28214
17.84900,-22.01804,25.22115
17.87100,-22.15285,25.07287
17.89300,-22.26800,24.85904
17.90500,-22.33352,24.67959
17.92700,-22.45611,24.39671
17.93900,-22.53009,24.18729
17.96100,-22.66388,23.84380
17.97300,-22.73611,23.69922
17.99500,-22.84461,23.44307
18.01700,-22.95238,23.22764
18.02900,-23.01463,23.10616
18.05100,-23.13549,22.86374
18.06300,-23.20267,22.76457
18.08500,-23.31549,22.63764
18.09700,-23.35432,22.66281
18.11900,-23.41311,22.73527
18.14100,-23.45570,22.82017
18.15300,-23.47996,22.89296
18.17500,-23.52905,22.98493
18.18700,-23.55453,23.00596
18.20900,-23.62223,22.98402
18.22600,-23.67865,22.89617
18.23800,-23.73995,22.76299
18.26000,-23.85376,22.50405
18.28200,-23.98770,22.28229
18.29400,-24.04774,22.18125
18.31600,-24.15158,22.02385
18.32800,-24.19871,21.96217
18.35000,-24.29893,21.85057
18.36200,-24.35415,21.76052
18.38400,-24.46954,21.59116
18.39600,-24.53041,21.48687
18.41800,-24.63136,21.30187
18.44000,-24.72069,21.08863
18.45200,-24.76846,20.97130
18.47400,-24.87335,20.70018
18.48600,-24.92714,20.50325
18.50800,-25.00567,20.03690
18.52000,-25.02978,19.74023
18.54200,-25.07098,19.12913
18.56400,-25.10895,18.63324
18.57600,-25.12951,18.42866
18.59800,-25.16556,18.11906
18.61000,-25.20575,17.95531
18.63200,-25.35771,17.68449
18.64400,-25.50598,17.58818
18.66600,-25.92264,17.48213
18.68800,-26.51461,17.42409
18.70000,-26.97029,17.43136
18.72200,-28.12738,17.49810
18.73400,-28.89986,17.54834
18.75600,-30.55888,17.48158
18.76800,-31.60459,17.23562
18.79000,-33.79182,16.45414
18.80200,-35.10799,15.90388
18.82400,-37.70137,14.54118
18.84600,-40.21103,12.49859
18.85800,-41.26217,11.07910
18.88000,-42.22507,8.90538
18.89200,-42.41549,7.81523
18.91400,-42.01773,6.87287
18.92600,-41.55445,6.63643
18.94800,-40.45776,6.61595
18.97000,-38.97025,7.07636
18.98200,-38.00817,7.50560
19.00400,-35.90757,8.48907
19.01600,-34.61887,9.07784
19.03800,-32.07676,10.19428
19.05000,-30.66625,10.76374
19.07200,-28.04840,11.73623
19.09400,-25.48429,12.51069
19.10600,-24.13214,12.89444
19.12800,-21.74632,13.61663
19.14000,-20.57001,14.00782
19.16200,-18.76941,14.63837
19.17400,-17.88211,15.05882
19.19600,-16.11700,15.98929
19.20800,-15.06035,16.61717
19.23000,-13.14784,17.95363
19.25200,-10.95646,19.15828
19.26400,-9.72927,19.80717
19.28600,-7.44422,20.91652
19.29800,-6.26839,21.47537
19.32000,-4.11233,22.33855
19.33200,-3.00249,22.73797
19.35400,-1.27286,23.61096
19.37600,0.22274,24.64429
19.38800,0.84781,25.06533
19.41000,1.59232,25.72461
19.42200,1.89790,26.01878
19.44400,2.34518,26.53214
19.45600,2.40146,26.75955
19.47800,2.21158,26.88521
19.50000,1.74260,26.79934
19.51200,1.29939,26.69875
19.53400,0.10546,26.47933
19.54600,-0.73969,26.32262
19.56800,-2.49502,26.02094
19.58000,-3.62388,25.52302
19.60200,-6.35727,24.35264
19.61400,-7.65490,23.87387
19.63600,-9.68681,23.08669
19.65800,-11.53071,22.86168
19.67000,-12.46643,22.98850
19.69200,-14.03064,23.27234
19.70400,-14.74173,23.49454
19.72600,-15.65613,24.13391
19.73800,-16.06600,24.43970
19.76000,-16.68431,24.77508
19.78200,-17.15200,25.11836
19.79400,-17.25737,25.21635
19.81600,-17.39415,25.20968
19.82800,-17.50902,25.16760
19.85000,-17.79660,24.88144
19.86200,-17.97856,24.62595
19.88400,-18.30828,24.16904
19.90600,-18.61294,23.66626
19.91800,-18.77962,23.33869
19.94000,-19.07409,22.66767
19.95200,-19.22745,22.25040
19.97400,-19.48313,21.36489
19.98600,-19.59997,20.89034
20.00800,-19.80385,20.01755
20.02000,-19.91611,19.55569
20.04200,-20.08525,18.69002
20.06400,-20.26875,17.79494
20.07600,-20.34628,17.31414
20.09800,-20.45054,16.65234
20.11000,-20.46721,16.42071
20.13200,-20.48994,16.13045
20.14400,-20.49247,16.01199
20.16600,-20.48520,15.82755
20.18800,-20.45044,15.64368
20.20000,-20.41994,15.54020
20.22700,-20.40576,15.37704
20.23900,-20.40665,15.27701
20.25100,-20.36518,15.14289
20.27300,-20.29978,14.99602
20.28500,-20.26670,14.88735
20.30700,-20.22184,14.69948
20.32900,-20.17299,14.48236
20.34100,-20.14738,14.38135
20.36300,-20.08768,14.26985
20.37500,-20.06110,14.24485
20.39700,-20.03168,14.15924
20.40900,-20.01392,14.11147
20.43100,-19.98682,13.99558
20.45300,-19.95554,13.85670
20.46500,-19.93019,13.77940
20.48700,-19.89486,13.62457
20.49900,-19.87992,13.53883
20.52100,-19.87310,13.38088
20.53300,-19.89446,13.28819
20.55500,-19.97595,13.08587
20.56700,-20.04091,12.95557
20.58900,-20.23695,12.69997
20.61100,-20.51410,12.48569
20.62300,-20.73376,12.40683
20.64500,-21.23474,12.21306
20.65700,-21.57395,12.06191
20.67900,-22.36355,11.51849
20.69100,-22.96169,11.14832
20.71300,-24.38293,10.21401
20.73500,-26.00817,9.09479
20.74700,-26.83521,8.60701
20.76900,-28.22430,8.24998
20.78100,-28.86161,8.29266
20.80300,-29.67290,8.74027
20.81500,-30.01113,9.04580
20.83700,-30.26918,9.53695
20.84929,-30.24728,9.78315
20.87100,-29.83098,10.22774
20.89300,-29.07222,10.68696
20.90500,-28.52177,10.95685
20.92700,-27.28422,11.44358
20.93900,-26.48250,11.72554
20.96100,-24.81850,12.28372
20.97300,-23.85574,12.57531
20.99500,-22.04040,13.11090
21.01700,-20.28304,13.70367
21.02900,-19.41176,14.04521
21.05100,-18.02523,14.46951
21.06300,-17.33280,14.44631
21.08500,-16.19218,14.76106
21.09700,-15.51665,15.05114
21.11900,-13.79865,15.96916
21.14100,-12.01658,17.24814
21.15300,-11.18415,18.03363
21.17500,-9.72261,19.63913
21.18700,-8.88058,20.52312
21.20900,-7.51115,22.24817
21.22100,-6.82644,23.17943
21.24300,-5.39845,24.91603
21.25500,-4.70191,25.87799
21.27700,-3.44360,27.43499
21.29900,-1.90812,28.50239
21.31100,-1.11944,28.98579
21.33300,0.19637,29.93039
21.34500,0.96954,30.23690
21.36700,2.16811,30.12784
21.37900,2.50525,29.90143
21.40100,2.58200,29.34806
21.42300,2.36519,28.66427
21.43500,2.12381,28.23254
21.45700,1.14031,27.33289
21.46900,0.19879,26.93884
21.49100,-2.54926,27.50457
21.50300,-3.54890,27.20832
21.52500,-5.68091,26.56366
21.54700,-7.71842,26.27623
21.55900,-8.43718,26.30104
21.58100,-9.63220,27.28499
21.59300,-10.16530,27.89119
21.61500,-10.68836,28.74727
21.62700,-10.90377,29.48831
21.64900,-11.24028,31.08336
21.66100,-11.44304,31.87031
21.68300,-11.74498,32.91611
21.70500,-12.07697,33.60872
21.71700,-12.32228,33.84173
21.73900,-12.96397,33.96854
21.75100,-13.39678,33.95833
21.77300,-14.11430,33.88891
21.78500,-14.41323,33.76824
21.80700,-14.86347,33.34708
21.82900,-15.26390,32.80692
21.84100,-15.43306,32.30045
21.86300,-15.82996,30.99435
21.87500,-15.95300,30.21420
21.89700,-16.24038,28.86037
21.90900,-16.34300,28.11986
21.93100,-16.51588,26.79458
21.95300,-16.67737,25.36421
21.96500,-16.78975,24.40385
21.98700,-17.04219,22.42275
21.99900,-17.09133,21.27201
22.02100,-17.29966,18.88125
22.03300,-17.45599,17.57136
22.05500,-17.59468,15.64847
22.07700,-17.76460,14.07837
22.08900,-17.77694,13.53416
22.11100,-17.76483,12.71462
22.12300,-17.73746,12.32412
22.14500,-17.62157,11.69543
22.15700,-17.56542,11.42777
22.17900,-17.41002,10.96520
22.19100,-17.33848,10.75637
22.21300,-17.23576,10.41534
22.23000,-17.18217,10.20436
22.25200,-17.11898,9.96345
22.26400,-17.09435,9.87059
22.28600,-17.07187,9.72928
22.29800,-17.08027,9.64651
22.32000,-17.04089,9.48667
22.33200,-17.03646,9.41063
22.35400,-17.01765,9.27983
22.37600,-17.02315,9.15920
22.38800,-17.02717,9.10645
22.41000,-17.07000,9.00823
22.42200,-17.07684,8.94829
22.44400,-17.06752,8.82189
22.45600,-17.05701,8.74690
22.47800,-17.03975,8.56505
22.50000,-17.03535,8.35026
22.51200,-17.03596,8.18650
22.53400,-17.05404,7.85062
22.54600,-17.08464,7.67297
22.56800,-17.24891,7.37631
22.58000,-17.37680,7.18914
22.60200,-17.65147,6.75143
22.61400,-17.82532,6.41930
22.63600,-18.16121,5.46485
22.65800,-18.76234,4.13444
22.67000,-19.11436,3.80807
22.69200,-19.85521,3.50176
22.70400,-20.26516,3.65732
22.72600,-20.91983,4.16631
22.73800,-21.22139,4.47319
22.76000,-21.67265,4.99658
22.78200,-21.99505,5.38806
22.79400,-22.11140,5.57965
22.81600,-22.10807,6.05906
22.82800,-21.96749,6.37315
22.85000,-21.47432,6.99121
22.86200,-21.16013,7.38409
22.88400,-20.53889,8.09868
22.90600,-19.88003,8.83466
22.91800,-19.50902,9.24821
22.94000,-18.69518,10.11505
22.95200,-18.22318,10.59366
22.97400,-17.37184,11.47421
22.98600,-16.93478,11.89867
23.00800,-16.14036,12.71462
23.02000,-15.70470,13.13547
23.04200,-15.07312,14.19481
23.06400,-14.20213,15.64599
23.07600,-13.59949,16.41446
23.09800,-12.80483,18.00103
23.11000,-12.46204,18.94842
23.13200,-11.86065,20.36871
23.14400,-11.55230,21.00132
23.16600,-10.99185,22.09762
23.18800,-9.99017,22.93891
23.20000,-9.27280,23.18531
23.22200,-8.13732,23.62679
23.23400,-7.65035,23.89557
23.25600,-6.69798,24.46987
23.26800,-6.18486,24.74772
23.29000,-5.43984,25.34956
23.30200,-5.07415,25.74176
23.32400,-4.43773,26.28610
23.34600,-3.83288,26.65945
23.35800,-3.52944,26.78632
23.38000,-3.13866,26.80423
23.39200,-3.02993,26.70965
23.41400,-3.04821,26.56678
23.43600,-3.27393,26.27761
23.44800,-3.61900,25.92188
23.47000,-4.57477,25.24250
23.48200,-5.27138,24.82197
23.50400,-6.95224,23.88600
23.51600,-8.09850,23.29154
23.53800,-9.45133,21.92818
23.55000,-10.22472,21.13701
23.57200,-11.90457,19.91411
23.59400,-13.56512,19.30975
23.60600,-14.48479,19.12189
23.62800,-16.16824,18.81664
23.64000,-16.83323,18.23475
23.66200,-17.41781,17.98550
23.67400,-17.68189,17.74873
23.69600,-18.01652,17.27230
23.70800,-18.14382,16.97542
23.73000,-18.36617,16.40905
23.75200,-18.56197,15.76434
23.76400,-18.66597,15.42685
23.78600,-18.85363,14.87437
23.79800,-18.96469,14.59554
23.82000,-19.23318,14.08974
23.83200,-19.40104,13.84451
23.85400,-19.69682,13.51662
23.87600,-19.98143,13.30314
23.88800,-20.12328,13.23228
23.91000,-20.36345,13.15508
23.92200,-20.48481,13.11859
23.94400,-20.63282,13.05205
23.95600,-20.70324,13.03129
23.97800,-20.82741,12.99434
23.99028,-20.85720,12.97265
24.01200,-20.92305,12.94112
24.03400,-21.00689,12.88093
24.04600,-21.04598,12.84493
24.06800,-21.11655,12.77203
24.08000,-21.14705,12.73734
24.10200,-21.20030,12.68408
24.11400,-21.22514,12.64428
24.13600,-21.25714,12.57418
24.15800,-21.29207,12.47032
24.17000,-21.29921,12.40750
24.19200,-21.30184,12.28494
24.20400,-21.28746,12.21828
24.23100,-21.26373,12.05154
24.24300,-21.24755,11.97837
24.25500,-21.22463,11.90065
24.27700,-21.18591,11.76060
24.29900,-21.15215,11.61204
24.31100,-21.14038,11.52161
24.33300,-21.12198,11.33415
24.34500,-21.11847,11.23710
24.36700,-21.12800,11.04027
24.37900,-21.13430,10.93714
24.40100,-21.15510,10.78048
24.42300,-21.16620,10.67096
24.43500,-21.17396,10.62383
24.45700,-21.20664,10.56046
24.46900,-21.22854,10.52244
24.49100,-21.26188,10.44472
24.50300,-21.27405,10.39232
24.52500,-21.30949,10.30153
24.54700,-21.35800,10.23372
24.55900,-21.39589,10.20285
24.58100,-21.50906,10.13863
24.59300,-21.60720,10.09232
24.61500,-21.86937,9.92795
24.62700,-22.10177,9.79595
24.64900,-22.61253,9.36308
24.66100,-22.92408,8.97498
24.68300,-23.63281,8.18813
24.70500,-24.40571,7.23710
24.71700,-24.92441,6.65061
24.73900,-26.04614,5.35474
24.75100,-26.70836,4.48898
24.77300,-28.00826,2.78386
24.78500,-28.69503,2.28357
24.80700,-29.88513,2.54491
24.82900,-30.74960,3.69204
24.84100,-31.00397,4.36892
24.86300,-31.17673,5.61698
24.87500,-31.06737,6.23990
24.89700,-30.42545,7.08839
24.90900,-29.82715,7.41621
24.93100,-28.29486,7.80893
24.95300,-26.42865,8.08629
24.96500,-25.31520,8.26664
24.98700,-23.15654,8.76386
24.99900,-21.97923,9.17950
25.02100,-19.96305,10.10551
25.03300,-18.95252,10.64678
25.05500,-17.26897,11.48027
25.06700,-16.46600,11.76892
25.08900,-15.04981,12.29650
25.11100,-13.45644,12.97975
25.12300,-12.57067,13.27414
25.14500,-11.49520,13.53340
25.15700,-11.08130,13.38248
25.17900,-10.20579,13.11292
25.19100,-9.76204,13.06635
25.21300,-8.76367,13.70061
25.23500,-7.50030,14.72412
25.24700,-6.84108,15.33305
25.26900,-5.84551,16.53627
25.28100,-5.41160,17.17983
25.30300,-4.75364,18.25480
25.31500,-4.35342,18.83895
25.33700,-3.61408,20.03511
25.34929,-3.24324,20.75207
25.37100,-2.68698,21.76102
25.39300,-2.23470,22.50279
25.40500,-2.03050,22.78285
25.42700,-1.87756,23.18033
25.43900,-1.87512,23.39435
25.46100,-2.05526,23.66086
25.47300,-2.30917,23.70886
25.49500,-2.95620,23.65357
25.51700,-3.70579,23.42060
25.52900,-5.47485,22.46941
25.55100,-7.65676,20.93909
25.56300,-9.10896,20.16715
25.58500,-11.92928,18.63027
25.59700,-13.31625,18.12179
25.61900,-15.56322,17.38665
25.64100,-17.50600,16.76903
25.65300,-18.26205,16.03591
25.67500,-19.03749,15.51192
25.68700,-19.37134,15.29419
25.70900,-19.78995,14.92252
25.72100,-19.96246,14.69935
25.74300,-20.27728,14.28157
25.75500,-20.43587,14.08569
25.77700,-20.69641,13.77982
25.79900,-20.95789,13.56177
25.81100,-21.10244,13.43266
25.83300,-21.36870,13.15515
25.84500,-21.50921,12.99614
25.86700,-21.75618,12.68150
25.87900,-21.91548,12.46472
25.90100,-22.14336,12.10617
25.92300,-22.38127,11.75484
25.93500,-22.49357,11.59730
25.95700,-22.67448,11.32071
25.96900,-22.75213,11.17394
25.99100,-22.88225,10.95130
26.00300,-22.94202,10.87479
26.02500,-23.04473,10.73640
26.04700,-23.24195,10.58349
26.05900,-23.31986,10.53802
26.08100,-23.41051,10.42494
26.09300,-23.44077,10.41017
26.11500,-23.46865,10.40087
26.12700,-23.47954,10.38629
26.14900,-23.48075,10.34839
26.16100,-23.47605,10.33860
26.18300,-23.46149,10.32125
26.20500,-23.44362,10.31460
26.21700,-23.43398,10.31063
26.23400,-23.40570,10.30852
26.25600,-23.37070,10.30378
26.26800,-23.34973,10.30603
26.29000,-23.30865,10.30574
26.30200,-23.28039,10.30808
26.32400,-23.23706,10.32223
26.34600,-23.19997,10.33426
26.35800,-23.18058,10.33548
26.38000,-23.15213,10.33824
26.39200,-23.13072,10.33736
26.41400,-23.08017,10.31357
26.42600,-23.06138,10.30260
26.44800,-23.04514,10.30085
26.47000,-23.04465,10.03520
26.48200,-23.02785,10.01947
26.50400,-23.04773,9.98552
26.51600,-23.07973,9.99571
26.53800,-23.11143,9.95952
26.55000,-23.14525,9.95143
26.57200,-23.24090,9.94236
26.59400,-23.41809,9.92856
26.60600,-23.55884,9.92980
26.62800,-23.86851,9.93314
26.64000,-24.08050,9.94676
26.66200,-24.67152,9.98914
26.67400,-25.04591,10.04679
26.69600,-25.88824,10.08424
26.70800,-26.45208,10.12763
26.73000,-27.69067,10.18715
26.75200,-29.25635,10.22822
26.76400,-30.02925,10.35195
26.78600,-31.99674,10.26734
26.79800,-33.17751,10.00426
26.82000,-35.54384,9.56267
26.83200,-36.86818,9.18131
26.85400,-38.91048,8.40699
26.87600,-39.98415,7.58967
26.88800,-40.21096,7.24913
26.91000,-39.78343,6.88971
26.92200,-39.30272,6.76208
26.94400,-38.04873,6.72921
26.95600,-37.15232,6.84192
26.97800,-35.23267,7.28987
26.99000,-34.07874,7.65454
27.01200,-31.79832,8.53927
27.03400,-29.36275,9.61781
27.04600,-27.97522,10.28860
27.06800,-25.37318,11.58736
27.08000,-23.93027,12.26479
27.10200,-21.26165,13.37913
27.11400,-19.82519,13.87382
27.13600,-17.27013,14.52967
27.15800,-14.68799,15.24657
27.17000,-13.24742,15.71850
27.19200,-10.66926,16.72042
27.20400,-9.30980,17.31639
27.22600,-6.79830,18.47929
27.23800,-5.44253,19.02899
27.26000,-2.98221,20.02958
27.28200,-0.84092,20.67679
27.29400,0.12866,21.09708
27.31600,1.55748,21.92476
27.32800,2.16211,22.30420
27.35000,2.96071,22.82136
27.36200,3.26031,22.99660
27.38400,3.61571,23.31832
27.39600,3.67795,23.39251
27.41800,3.54044,23.52435
27.44000,3.32339,23.54956
27.45200,3.06832,23.50102
27.47400,2.27771,23.35341
27.48600,0.86936,22.98423
27.50800,-2.40371,23.01725
27.52000,-3.70556,23.08447
27.54200,-6.83994,22.87435
27.56400,-9.74176,22.33097
27.57600,-11.14155,21.81062
27.59800,-13.48951,21.34758
27.61000,-14.68096,21.28241
27.63200,-16.63224,21.60919
27.64400,-17.66044,22.01470
27.66600,-18.81890,22.44706
27.68800,-19.48484,22.35911
27.70000,-19.73815,22.27666
27.72200,-20.01636,22.02977
27.73400,-20.18146,21.85625
27.75600,-20.56960,21.59630
27.76800,-20.78780,21.62308
27.79000,-21.20052,21.95610
27.80200,-21.39892,22.22862
27.82400,-21.68259,22.85571
27.84600,-21.88928,23.44266
27.85800,-21.98438,23.73157
27.88000,-22.09063,24.20054
27.89200,-22.14089,24.39443
27.91400,-22.20142,24.71574
27.92600,-22.21987,24.87892
27.94800,-22.19838,25.18640
27.97000,-22.15729,25.38507
27.98200,-22.15373,25.43513
28.00400,-22.13704,25.48257
28.01600,-22.12520,25.51319
28.03800,-22.11413,25.59293
28.05000,-22.11596,25.61022
28.07200,-22.12979,25.51295
28.09400,-22.14248,25.39446
28.10600,-22.15428,25.29841
28.12800,-22.19678,25.00396
28.14000,-22.22501,24.79056
28.16200,-22.30991,24.42785
28.17400,-22.38549,24.20370
28.19600,-22.53966,23.71866
28.20800,-22.62102,23.45397
28.23500,-22.78803,22.96727
28.24700,-22.86174,22.76738
28.26900,-22.99377,22.48402
28.28100,-23.05641,22.38075
28.30300,-23.13957,22.19681
28.31500,-23.19090,22.10293
28.33700,-23.28148,21.90466
28.34929,-23.32762,21.79115
28.37100,-23.41438,21.61728
28.39300,-23.51254,21.43998
28.40500,-23.58107,21.32659
28.42700,-23.71657,21.07207
28.43900,-23.78352,20.91601
28.46100,-23.89508,20.65538
28.47300,-23.94482,20.54155
28.49500,-24.01133,20.35560
28.51700,-24.06725,20.20268
28.52900,-24.10635,20.15815
28.55100,-24.20810,20.08458
28.56300,-24.31219,20.02259
28.58500,-24.59683,19.91423
28.59700,-24.80510,19.90729
28.61900,-25.30395,19.95911
28.64100,-25.92497,20.09590
28.65300,-26.38636,20.23232
28.67500,-27.51369,20.55816
28.68700,-28.27209,20.78433
28.70900,-29.97861,21.16293
28.72100,-31.08471,21.33924
28.74300,-33.40508,21.56603
28.75500,-34.79668,21.43497
28.77700,-37.24312,21.02122
28.79900,-38.56182,20.08735
28.81100,-38.62827,19.32206
28.83300,-37.79293,17.93607
28.84500,-37.01271,17.24227
28.86700,-35.18223,16.15859
28.87900,-34.02879,15.68700
28.90100,-31.74450,15.11462
28.92300,-29.25452,14.96583
28.93500,-27.82599,15.09411
28.95700,-25.23691,15.59797
28.96900,-23.92550,15.89462
28.99100,-21.67488,16.32855
29.00300,-20.49157,16.53392
29.02500,-18.32261,17.15498
29.04700,-16.19312,17.85553
29.05900,-15.18885,18.13539
29.08100,-13.68904,18.23374
29.09300,-13.05167,18.05585
29.11500,-12.25829,17.51211
29.12700,-11.73402,17.48967
29.14900,-9.87010,18.02468
29.16100,-8.85593,18.29306
29.18300,-7.43380,18.76293
29.20500,-6.48640,19.11813
29.21700,-6.20747,19.23832
29.23900,-5.77601,19.93579
29.25100,-5.22757,20.63380
29.27300,-3.99344,21.60468
29.28500,-3.50889,21.96061
29.30700,-2.91168,22.58916
29.32900,-2.46539,23.09380
29.34100,-2.27265,23.31945
29.36300,-1.97654,23.83679
29.37500,-1.81113,24.16231
29.39700,-1.54003,24.72812
29.40900,-1.47709,24.92892
29.43100,-1.48266,25.13497
29.45300,-1.64514,25.17567
29.46500,-1.81153,25.16718
29.48700,-2.45520,25.11393
29.49900,-3.07026,25.05153
29.52100,-5.79024,25.40954
29.53300,-7.21458,24.62150
29.55500,-9.37708,23.33049
29.56700,-10.92921,22.49050
29.58900,-13.64798,21.40342
29.61100,-16.06608,20.33003
29.62300,-17.25976,19.81516
29.64500,-19.02578,18.78338
29.65700,-19.52380,18.18022
29.67900,-20.15786,17.12190
29.69100,-20.37566,16.72923
29.71300,-20.63307,16.15849
29.73500,-20.86985,15.67880
29.74700,-20.98215,15.50797
29.76900,-21.16054,15.25517
29.78100,-21.24352,15.13212
29.80300,-21.42903,14.87150
29.81500,-21.52056,14.70427
29.83700,-21.70102,14.33732
29.84900,-21.81732,14.11699
29.87100,-21.96644,13.71834
29.89300,-22.12335,13.34123
29.90500,-22.22313,13.14075
29.92700,-22.37751,12.73436
29.93900,-22.44989,12.49601
29.96100,-22.53858,12.05722
29.97300,-22.56782,11.85760
29.99500,-22.63617,11.49366
30.01700,-22.65847,11.18047
30.02900,-22.66670,11.06818
30.05100,-22.67034,10.90598
30.06300,-22.69002,10.84778
30.08500,-22.72565,10.77286
30.09700,-22.72206,10.71688
30.11900,-22.72360,10.62485
30.14100,-22.72256,10.56527
30.15300,-22.74445,10.54720
30.17500,-22.89325,10.39063
30.18700,-22.89491,10.38353
30.20900,-22.99118,10.34430
30.22100,-22.99059,10.35368
30.23800,-22.99391,10.42254
30.26000,-23.01354,10.48008
30.28200,-23.08428,10.53971
30.29400,-23.14533,10.54586
30.31600,-23.24993,10.52693
30.32800,-23.28517,10.51458
30.35000,-23.31076,10.51163
30.36200,-23.32492,10.52572
30.38400,-23.34566,10.57859
30.40600,-23.35714,10.62995
30.41800,-23.35856,10.65749
30.44000,-23.34619,10.69369
30.45200,-23.33481,10.71040
30.47400,-23.31341,10.72242
30.48600,-23.29902,10.72359
30.50800,-23.26952,10.72106
30.52000,-23.25456,10.72064
30.54200,-23.21800,10.72057
30.56400,-23.19343,10.72707
30.57600,-23.20968,10.73718
30.59800,-23.31560,10.71282
30.61000,-23.43357,10.69599
30.63200,-23.77939,10.65918
30.64400,-24.04488,10.64353
30.66600,-24.68701,10.62403
30.68800,-25.51213,10.53894
30.70000,-26.10479,10.51010
30.72200,-27.31650,10.34915
30.73400,-28.00414,10.30503
30.75600,-29.50832,10.14817
30.76800,-30.53104,9.99032
30.79000,-32.58508,9.52416
30.80200,-33.79042,9.18824
30.82400,-36.09303,8.38806
30.84600,-38.44030,7.46827
30.85800,-39.59420,6.94358
30.88000,-40.88628,5.76448
30.89200,-41.20135,5.21465
30.91400,-41.20099,4.47935
30.92600,-40.85557,4.35393
30.94800,-39.86757,4.48809
30.97000,-38.68797,5.00122
30.98200,-37.89505,5.41284
31.00400,-36.20519,6.37751
31.01600,-35.15218,6.97749
31.03800,-32.93278,8.17412
31.06000,-30.54189,9.37951
31.07200,-29.19216,10.02217
31.09400,-26.65630,11.01448
31.10600,-25.25965,11.39664
31.12800,-22.57634,11.93389
31.14000,-21.06024,11.97998
31.16200,-18.57433,12.16968
31.17400,-17.34713,12.05131
31.19600,-15.46583,11.61787
31.21800,-13.76863,11.20775
31.23000,-12.86090,11.07462
31.25200,-10.88298,11.74901
31.26400,-9.55940,12.57776
31.28600,-7.23379,13.85736
31.29800,-6.07001,14.48477
31.32000,-4.03542,15.49261
31.33200,-3.05147,15.94537
31.35400,-1.57921,16.80394
31.37600,-0.47948,17.57646
31.38800,-0.12780,17.88489
31.41000,0.18607,18.39542
31.42200,0.20556,18.68841
31.44400,-0.00912,19.06006
31.45600,-0.21850,19.22927
31.47800,-0.89101,19.31455
31.50000,-2.36371,19.44190
31.51200,-3.76107,18.87090
31.53400,-5.59067,17.84575
31.54600,-6.87336,17.68399
31.56800,-9.21902,16.98259
31.58000,-10.37249,16.42953
31.60200,-12.21318,15.41281
31.62400,-13.72212,14.66750
31.63600,-14.46675,14.40984
31.65800,-15.69111,14.08370
31.67000,-16.31292,13.94110
31.69200,-17.14138,13.70482
31.70400,-17.48248,13.45800
31.72600,-18.06457,12.92706
31.73800,-18.29983,12.64771
31.76000,-18.73989,12.04771
31.78200,-19.15516,11.42515
31.79400,-19.36078,11.19689
31.81600,-19.67196,10.86175
31.82800,-19.83289,10.69987
31.85000,-20.05099,10.45917
31.86200,-20.13516,10.32592
31.88400,-20.31022,10.00056
31.89600,-20.40894,9.85231
31.91800,-20.57781,9.65543
31.94000,-20.68206,9.52216
31.95200,-20.72917,9.48193
31.97400,-20.79687,9.42578
31.98600,-20.80878,9.39122
32.00800,-20.81084,9.36132
32.02000,-20.80310,9.35038
32.04200,-20.80525,9.33988
32.06400,-20.81726,9.33976
32.07600,-20.82179,9.33859
32.09800,-20.82772,9.32512
32.11000,-20.84871,9.28995
32.13200,-20.81338,9.26983
32.14400,-20.80022,9.27595
32.16600,-20.85020,9.25706
32.18800,-20.89599,9.26120
32.20000,-20.92630,9.26705
32.22200,-20.97441,9.26834
32.23900,-20.99811,9.17382
32.25100,-20.98939,9.16400
32.27300,-20.98423,9.11062
32.28500,-21.01528,9.10190
32.30700,-21.05437,9.18508
32.32900,-21.05788,9.23980
32.34100,-21.07727,9.24968
32.36300,-21.15429,9.27771
32.37500,-21.19862,9.29143
32.39700,-21.29302,9.32674
32.40900,-21.36633,9.34767
32.43100,-21.56409,9.37846
32.44300,-21.68089,9.40404
32.46500,-21.92533,9.49217
32.48700,-22.16274,9.57739
32.49900,-22.26836,9.60608
32.52100,-22.44506,9.66637
32.53300,-22.54601,9.70614
32.55500,-22.80586,9.79217
32.56700,-22.98709,9.85200
32.58900,-23.45104,9.95824
32.61100,-24.03561,10.06136
32.62300,-24.44520,10.13745
32.64500,-25.41731,10.33279
32.65700,-26.04455,10.46514
32.67900,-27.37433,10.70471
32.69100,-28.24486,10.83251
32.71300,-30.10319,11.06219
32.73500,-32.23714,11.16510
32.74700,-33.49454,11.24772
32.76900,-36.05864,11.48665
32.78100,-37.51540,11.60406
32.80300,-40.26528,11.73355
32.81500,-41.62275,11.82552
32.83700,-43.29182,11.38417
32.84900,-43.73582,10.97110
32.87100,-43.73410,9.75676
32.89300,-42.97437,8.54919
32.90500,-42.18044,8.12301
32.92700,-40.35259,7.94510
32.93900,-39.16488,8.15118
32.96100,-36.58950,8.75584
32.97300,-34.99358,9.09365
32.99500,-31.72900,9.63058
33.01700,-28.31502,10.18994
33.02900,-26.46096,10.52874
33.05100,-23.12716,11.20710
33.06300,-21.37476,11.55349
33.08500,-18.26631,11.87275
33.09700,-16.70655,11.87746
33.11900,-14.14188,11.53008
33.14100,-11.94136,11.00066
33.15300,-10.93583,10.80660
33.17500,-9.29321,11.10109
33.18700,-8.36939,11.66738
33.20900,-6.77976,12.90711
33.22100,-6.01176,13.50951
33.24300,-4.64366,14.48250
33.25500,-3.90084,14.98519
33.27700,-2.73088,15.93062
33.29900,-1.79442,16.79102
33.31100,-1.33383,17.15123
33.33300,-0.58183,17.72974
33.34500,-0.31826,18.00694
33.36700,0.04434,18.48386
33.37900,0.17964,18.65180
33.40100,0.21854,18.98792
33.42300,0.00024,19.08357
33.43500,-0.22742,19.05983
33.45700,-0.81280,18.92439
33.46900,-1.24065,18.75606
33.49100,-2.59596,17.90169
33.50300,-3.29289,17.44382
33.52500,-5.29463,16.71123
33.53700,-6.48079,16.36739
33.55900,-8.46405,15.80891
33.58100,-10.40345,15.27056
33.59300,-11.41419,15.08712
33.61500,-13.30472,14.82610
33.62700,-14.41537,14.69485
33.64900,-16.43034,14.32133
33.66100,-17.09497,13.82897
33.68300,-17.91060,12.70885
33.70500,-18.51115,11.94951
33.71700,-18.75882,11.58152
33.73900,-19.06697,11.21966
33.75100,-19.21784,11.13090
33.77300,-19.50544,11.07361
33.78500,-19.65236,11.04858
33.80700,-19.88165,10.98862
33.82900,-20.07519,10.87915
33.84100,-20.16164,10.77984
33.86300,-20.32102,10.52642
33.87500,-20.40805,10.41115
33.89700,-20.54153,10.23371
33.90900,-20.60563,10.14354
33.93100,-20.68440,9.98691
33.94300,-20.73731,9.90181
33.96500,-20.81440,9.74316
33.98700,-20.87052,9.59683
33.99900,-20.91512,9.49611
34.02100,-20.96556,9.37254
34.03300,-20.99850,9.32319
34.05500,-21.07820,9.18456
34.06700,-21.10527,9.12622
34.08900,-21.15012,8.99634
34.11100,-21.15384,8.67100
34.12300,-21.04884,8.69685
34.14500,-20.97779,8.65584
34.15700,-20.94463,8.62171
34.17900,-20.94818,8.59654
34.19100,-20.99102,8.57998
34.21300,-21.12015,8.53137
34.24000,-21.20440,8.47479
34.25200,-21.23998,8.45478
34.26400,-21.27563,8.43892
34.28600,-21.32797,8.41800
34.29800,-21.35281,8.42085
34.32000,-21.39126,8.42611
34.33200,-21.40157,8.44319
34.35400,-21.41583,8.47119
34.37600,-21.42532,8.50961
34.38800,-21.42732,8.54068
34.41000,-21.43731,8.61254
34.42200,-21.44084,8.65189
34.44400,-21.45029,8.72510
34.45600,-21.44823,8.77073
34.47800,-21.48625,8.86604
34.49000,-21.55469,8.92185
34.51200,-21.79806,9.04059
34.53400,-22.14425,9.10724
34.54600,-22.38341,9.13349
34.56800,-22.95805,9.17764
34.58000,-23.35753,9.26428
34.60200,-24.21143,9.42193
34.61400,-24.75907,9.52644
34.63600,-25.93076,9.83204
34.65800,-27.25125,10.15978
34.67000,-28.09436,10.36893
34.69200,-29.95610,10.67680
34.70400,-31.12908,10.76196
34.72600,-33.44338,10.84063
34.74800,-35.85809,10.76525
34.76000,-37.22814,10.70248
34.78200,-39.84647,10.51804
34.79400,-41.28001,10.44066
34.81600,-43.45962,10.17385
34.82800,-44.15599,9.84419
34.85000,-44.51574,8.84971
34.86200,-44.24581,8.17430
34.88400,-43.08784,6.98647
34.90600,-41.21215,6.27827
34.91800,-40.00634,6.17789
34.94000,-37.60706,6.45560
34.95200,-36.14749,6.85650
34.97400,-33.23193,7.76673
34.98600,-31.56777,8.31596
35.00800,-28.45475,9.31392
35.02000,-26.63769,9.86723
35.04200,-23.41094,10.71929
35.06400,-20.40749,11.43244
35.07600,-18.92223,11.80090
35.09800,-16.42672,12.39059
35.11000,-15.17927,12.49719
35.13200,-13.27850,12.21809
35.14400,-12.49815,11.90983
35.16600,-11.65052,11.03623
35.18800,-10.97436,10.75378
35.20000,-10.51019,11.10373
35.22200,-9.17153,11.85021
35.23400,-8.17508,12.24927
35.25600,-6.61061,13.26696
35.26800,-5.91484,13.74234
35.29000,-4.69970,14.38390
35.30200,-4.09968,14.62209
35.32400,-3.00526,14.91850
35.34600,-1.97500,15.39958
35.35800,-1.55108,15.68695
35.38000,-0.99380,16.10331
35.39200,-0.83500,16.28221
35.41400,-0.70841,16.54364
35.42600,-0.75302,16.68266
35.44800,-1.11266,16.89828
35.47000,-1.81800,17.05626
35.48200,-2.36977,17.01455
35.50400,-4.72129,16.82224
35.51600,-6.05198,16.40792
35.53800,-8.53433,15.87537
35.55000,-10.11909,15.48637
35.57200,-12.68934,14.98725
35.59400,-14.94206,14.20619
35.60600,-16.11539,13.78330
35.62800,-18.15115,12.81634
35.64000,-18.85280,12.14641
35.66200,-19.73969,11.04529
35.67400,-20.08852,10.72125
35.69600,-20.52962,10.46028
35.70800,-20.69389,10.41366
35.73000,-20.92291,10.41562
35.75200,-21.15386,10.36432
35.76400,-21.30799,10.37820
35.78600,-21.56844,10.36437
35.79800,-21.62978,10.35828
35.82000,-21.74300,10.26635
35.83200,-21.79229,10.16733
35.85400,-21.87552,9.98728
35.87600,-21.94530,9.81292
35.88800,-21.96927,9.72899
35.91000,-22.00272,9.56615
35.92200,-22.01847,9.47400
35.94400,-22.04892,9.30929
35.95600,-22.05406,9.22103
35.97800,-22.04596,9.03758
36.00000,-22.01408,8.89259
36.01200,-21.99545,8.81299
36.03400,-21.95557,8.70297
36.04600,-21.93323,8.64402
36.06800,-21.88370,8.55980
36.08000,-21.85754,8.52645
36.10200,-21.80123,8.45740
36.11400,-21.77454,8.41147
36.13600,-21.72998,8.32141
36.15800,-21.69589,8.21235
36.17000,-21.67660,8.15675
36.19200,-21.64701,8.05802
36.20400,-21.61967,8.00461
36.22600,-21.57144,7.93322
36.24300,-21.53312,7.89344
36.25500,-21.50950,7.86219
36.27700,-21.46391,7.82345
36.29900,-21.43447,7.80988
36.31100,-21.43028,7.80225
36.33300,-21.42642,7.79545
36.34500,-21.42522,7.77282
36.36700,-21.42336,7.71883
36.37900,-21.41999,7.68204
36.40100,-21.43174,7.62617
36.42300,-21.44847,7.56376
36.43500,-21.47079,7.53936
36.45700,-21.56292,7.50410
36.46900,-21.65892,7.50181
36.49100,-21.90475,7.49917
36.50300,-22.10733,7.47915
36.52500,-22.62008,7.37984
36.54700,-23.23156,7.21788
36.55900,-23.60737,7.10028
36.58100,-24.51704,6.93452
36.59300,-24.40206,6.70211
36.61500,-25.12029,6.39404
36.62700,-25.92987,6.31984
36.64900,-27.70625,5.79908
36.66100,-28.64026,5.65708
36.68300,-30.48631,5.67675
36.70500,-32.68267,4.97320
36.71700,-33.99195,4.49015
36.73900,-36.47980,3.59921
36.75100,-37.79480,3.01687
36.77300,-40.21349,2.44519
36.78500,-41.39601,1.79098
36.80700,-42.77845,0.39243
36.82900,-43.42533,-0.62966
36.84100,-43.31048,-0.65435
36.86300,-42.56972,-0.12609
36.87500,-42.00225,0.41940
36.89700,-40.57240,1.76187
36.90900,-39.60655,2.46659
36.93100,-37.49198,3.67589
36.95300,-35.10388,4.71940
36.96500,-33.66612,5.20109
36.98700,-30.86963,6.00080
36.99900,-29.33420,6.38388
37.02100,-26.58956,7.09518
37.03300,-25.10897,7.46933
37.05500,-22.53951,8.11539
37.06700,-21.27383,8.49220
37.08900,-19.01875,9.20620
37.11100,-16.95084,9.89567
37.12300,-15.98287,10.27444
37.14500,-14.41218,11.11770
37.15700,-13.48916,11.66520
37.17900,-11.83037,12.75755
37.19100,-11.04703,13.39080
37.21300,-9.72427,14.50671
37.23500,-8.55476,15.53977
37.24700,-7.97999,15.99670
37.26900,-7.09056,16.80914
37.28100,-6.70656,17.35759
37.30300,-6.20715,18.45426
37.31500,-5.95638,18.98492
37.33700,-5.35941,19.73768
37.34900,-5.04495,19.97425
37.37100,-4.70331,20.19837
37.39300,-4.53994,20.32768
37.40500,-4.56711,20.41225
37.42700,-4.88067,20.45721
37.43900,-5.68710,20.12255
37.46100,-7.97089,19.30693
37.47300,-9.40729,18.51005
37.49500,-11.27347,17.16320
37.51700,-13.32710,15.92960
37.52900,-14.40688,15.59418
37.55100,-16.42989,14.79528
37.56300,-17.59219,14.09011
37.58500,-18.91944,12.67192
37.59700,-19.33765,11.80141
37.61900,-20.06123,10.70652
37.64100,-20.56140,9.81591
37.65300,-20.78630,9.47274
37.67500,-21.14240,8.95534
37.68700,-21.32884,8.74052
37.70900,-21.67399,8.47285
37.72100,-21.81510,8.38804
37.74300,-22.04499,8.34705
37.75500,-22.14128,8.32914
37.77700,-22.30401,8.28689
37.79900,-22.44181,8.22102
37.81100,-22.52445,8.17829
37.83300,-22.66963,8.13649
37.84500,-22.74054,8.10955
37.86700,-22.81810,8.06259
37.88900,-22.88758,8.00552
37.90100,-22.91499,7.98661
37.92300,-23.00475,7.90379
37.93500,-23.03973,7.87002
37.95700,-23.07664,7.80156
37.96900,-23.08267,7.76047
37.99100,-23.07982,7.69067
38.00300,-23.08131,7.66004
38.02500,-23.08558,7.60672
38.04700,-23.16309,7.52570
38.05900,-23.15609,7.50796
38.08100,-23.03413,7.55353
38.09300,-23.00727,7.58086
38.11500,-22.93712,7.54793
38.12700,-22.87360,7.53745
38.14900,-22.95212,7.58593
38.16100,-22.55353,7.62842
38.18300,-22.35178,7.63162
38.20500,-22.24962,7.60113
38.21700,-22.18343,7.57233
38.24400,-22.11192,7.53085
38.25600,-22.06785,7.51225
38.26800,-22.00706,7.48902
38.29000,-21.87767,7.44362
38.30200,-21.81921,7.40769
38.32400,-21.69368,7.34786
38.34600,-21.57758,7.30212
38.35800,-21.52091,7.28790
38.38000,-21.43986,7.24739
38.39200,-21.40862,7.21501
38.41400,-21.37914,7.13814
38.42600,-21.37162,7.08425
38.44800,-21.38200,6.95038
38.47000,-21.44405,6.76444
38.48200,-21.50199,6.63266
38.50400,-21.65891,6.33260
38.51600,-21.79640,6.14006
38.53800,-22.15647,5.82793
38.55000,-22.52594,5.90165
38.57200,-23.31974,5.65083
38.59400,-24.47107,5.38950
38.60600,-25.20606,5.26114
38.62800,-26.65988,5.02803
38.64000,-27.63588,4.70328
38.66200,-29.52547,3.97197
38.67400,-30.63879,3.44453
38.69600,-32.79595,2.39259
38.70800,-34.00248,1.75521
38.73000,-36.18692,0.61679
38.75200,-38.08709,-0.44251
38.76400,-38.79876,-1.04330
38.78600,-39.51001,-1.60504
38.79800,-39.47118,-1.38874
38.82000,-38.78558,-0.65184
38.83200,-38.16934,-0.18350
38.85400,-36.61713,0.71739
38.87600,-34.80102,1.58909
38.88800,-33.67762,2.10409
38.91000,-31.36899,3.22385
38.92200,-30.04897,3.91609
38.94400,-27.66769,5.28804
38.95600,-26.37823,6.09137
38.97800,-23.94194,7.49993
39.00000,-21.59958,8.73846
39.01200,-20.42054,9.39764
39.03400,-18.43824,10.61970
39.04600,-17.43305,11.26930
39.06800,-15.56004,12.31077
39.08000,-14.58526,12.76370
39.10200,-13.01837,13.25313
39.11400,-12.75666,13.12007
39.13600,-12.77088,12.72064
39.15800,-12.62796,12.73513
39.17000,-12.00716,13.25851
39.19200,-10.17002,14.42795
39.20400,-9.29158,15.07088
39.22600,-8.03074,16.22705
39.23829,-7.34692,16.80408
39.26000,-6.20493,17.56268
39.28200,-5.07856,18.31176
39.29400,-4.53827,18.72749
39.31600,-3.75686,19.20985
39.32800,-3.47035,19.35740
39.35000,-3.17154,19.48029
39.36200,-3.07857,19.49124
39.38400,-2.91889,19.59787
39.39600,-2.90150,19.59524
39.41800,-3.01378,19.49832
39.44000,-3.14697,19.35925
39.45200,-3.33334,19.26777
39.47400,-4.87815,18.97268
39.48600,-6.23913,18.94193
39.50800,-8.52385,18.05011
39.52000,-9.73055,17.88323
39.54200,-11.96053,17.70284
39.56400,-14.20505,17.87746
39.57600,-15.42263,17.90403
39.59800,-17.58363,17.95041
39.61000,-18.32442,17.85780
39.63200,-19.05125,17.42317
39.64400,-19.33282,17.19813
39.66600,-19.68895,16.93659
39.68800,-19.96320,16.73898
39.70000,-20.10462,16.63994
39.72200,-20.36801,16.44970
39.73400,-20.51464,16.42984
39.75600,-20.75309,16.43999
39.76800,-20.87084,16.47247
39.79000,-21.01711,16.53628
39.80200,-21.07505,16.58240
39.82400,-21.14949,16.60483
39.84600,-21.19898,16.66678
39.85800,-21.21427,16.72252
39.88000,-21.26798,16.81807
39.89200,-21.30282,16.88593
39.91400,-21.35488,17.05037
39.92600,-21.37019,17.20342
39.94800,-21.41309,17.50439
39.97000,-21.45646,17.74795
39.98200,-21.48264,17.82281
40.00400,-21.54048,17.80790
40.01600,-21.55853,17.80215
40.03800,-21.59318,17.71395
40.05000,-21.60530,17.64732
40.07200,-21.63118,17.52257
40.09400,-21.64292,17.38946
40.10600,-21.64992,17.28078
40.12800,-21.67950,17.01273
40.14000,-21.70331,16.86377
40.16200,-21.77649,16.54144
40.17400,-21.81296,16.35482
40.19600,-21.87680,16.06036
40.20800,-21.90726,15.91950
40.23000,-21.94753,15.68801
40.24700,-21.97871,15.51239
40.26900,-22.01361,15.31060
40.28100,-22.03284,15.20718
40.30300,-22.06028,15.02408
40.31500,-22.06333,14.93637
40.33700,-22.05044,14.83148
40.34900,-22.05251,14.77597
40.37100,-22.05419,14.70567
40.39300,-22.04774,14.65857
40.40500,-22.04569,14.63543
40.42700,-22.04577,14.59624
40.43900,-22.04124,14.56997
40.46100,-22.03920,14.49429
40.47300,-22.03617,14.44527
40.49500,-22.02059,14.34203
40.51700,-21.99556,14.25850
40.52900,-21.98323,14.21418
40.55100,-21.92957,14.13287
40.56300,-21.90280,14.10437
40.58500,-21.85609,14.06441
40.59700,-21.83510,14.04154
40.61900,-21.78691,14.00406
40.64100,-21.73584,13.96824
40.65300,-21.71016,13.94610
40.67500,-21.67428,13.90676
40.68700,-21.64980,13.88555
40.70900,-21.62090,13.84088
40.72100,-21.60788,13.82350
40.74300,-21.58681,13.80700
40.75500,-21.57766,13.79561
40.77700,-21.57640,13.77828
40.79900,-21.57247,13.75177
40.81100,-21.57590,13.72276
40.83300,-21.58970,13.66224
40.84500,-21.58960,13.63600
40.86700,-21.58973,13.59952
40.87900,-21.58935,13.58240
40.90100,-21.58785,13.54231
40.92300,-21.58349,13.52041
40.93500,-21.57521,13.51358
40.95700,-21.56145,13.50450
40.96900,-21.55557,13.50543
40.99100,-21.53166,13.50637
41.00300,-21.52168,13.50842
41.02500,-21.50855,13.51761
41.04700,-21.49623,13.52033
41.05900,-21.48955,13.51914
41.08100,-21.46951,13.51203
41.09300,-21.44932,13.51049
41.11500,-21.38912,13.52232
41.12700,-21.35731,13.52860
41.14900,-21.32922,13.52109
41.16100,-21.32557,13.50431
41.18300,-21.32465,13.47408
41.20500,-21.30954,13.44037
41.21700,-21.29085,13.42642
41.23900,-21.24515,13.40532
41.25100,-21.21900,13.39418
41.27300,-21.16279,13.36921
41.28500,-21.15002,13.34774
41.30700,-21.12322,13.32584
41.32900,-21.09176,13.30666
41.34100,-21.07374,13.30060
41.36300,-21.04560,13.29174
41.37500,-21.02836,13.29330
41.39700,-21.01442,13.29328
41.40900,-21.00849,13.29065
41.43100,-20.99525,13.27219
41.44329,-20.99085,13.26267
41.46500,-20.98737,13.25026
41.48700,-20.98332,13.24267
41.49900,-20.98343,13.23578
41.52100,-20.97414,13.22516
41.53300,-20.96287,13.21543
41.55500,-20.94277,13.20389
41.56700,-20.93518,13.20531
41.58900,-20.90658,13.21830
41.61100,-20.88356,13.23857
41.62300,-20.86979,13.24420
41.64500,-20.83405,13.26229
41.65700,-20.81899,13.26800
41.67900,-20.80418,13.28212
41.69100,-20.79780,13.29002
41.71300,-20.79096,13.30041
41.73500,-20.78367,13.30346
41.74700,-20.77973,13.30548
41.76900,-20.77214,13.30303
41.78100,-20.76776,13.30359
41.80300,-20.75696,13.30657
41.81500,-20.75189,13.30397
41.83700,-20.75302,13.29248
41.84900,-20.74994,13.28320
41.87100,-20.74938,13.26690
41.89300,-20.75767,13.25762
41.90500,-20.75945,13.24905
41.92700,-20.76671,13.22968
41.93900,-20.76949,13.21572
41.96100,-20.76294,13.19604
41.97300,-20.76398,13.18862
41.99500,-20.76813,13.18838
42.01700,-20.76555,13.19193
42.02900,-20.76490,13.19145
42.05100,-20.76382,13.19594
42.06300,-20.76345,13.19021
42.08500,-20.77154,13.18787
42.09700,-20.77716,13.18523
42.11900,-20.78169,13.18073
42.14100,-20.79670,13.17732
42.15300,-20.80290,13.17023
42.17500,-20.81419,13.16557
42.18700,-20.81704,13.16103
42.20900,-20.83151,13.14277
42.22100,-20.83840,13.13503
42.24800,-20.84960,13.11354
42.26000,-20.85240,13.10245
42.28200,-20.85517,13.08508
42.29400,-20.85353,13.07642
42.31600,-20.84494,13.07100
42.32800,-20.83985,13.07013
42.35000,-20.82801,13.06877
42.36200,-20.82402,13.06604
42.38400,-20.81675,13.06500
42.39600,-20.81225,13.05958
42.41800,-20.80486,13.05353
42.44000,-20.79698,13.05332
42.45200,-20.79452,13.05458
42.47400,-20.79435,13.05325
42.48600,-20.79043,13.04817
42.50800,-20.78875,13.03662
42.52000,-20.78682,13.03027
42.54200,-20.79175,13.00672
42.56400,-20.78809,12.98766
42.57600,-20.78716,12.97806
42.59800,-20.78893,12.95725
42.61000,-20.78789,12.94750
42.63200,-20.78919,12.93097
42.64400,-20.78551,12.92605
42.66600,-20.77555,12.91094
42.68800,-20.76637,12.90483
42.70000,-20.75739,12.89740
42.72200,-20.76085,12.88570
42.73400,-20.76157,12.87937
42.75600,-20.75352,12.85934
42.76800,-20.75150,12.85464
42.79000,-20.75385,12.83916
42.80200,-20.75488,12.82945
42.82400,-20.74995,12.81101
42.84600,-20.74217,12.79590
42.85800,-20.74253,12.78417
42.88000,-20.74733,12.76548
42.89200,-20.74705,12.75767
42.91400,-20.74487,12.73810
42.92600,-20.74004,12.73094
42.94800,-20.73583,12.71496
42.97000,-20.73721,12.70018
42.98200,-20.73314,12.69103
43.00400,-20.73083,12.67190
43.01600,-20.72915,12.66119
43.03800,-20.73332,12.64134
43.05000,-20.73605,12.63164
43.07200,-20.73318,12.60971
43.09400,-20.74360,12.58471
43.10600,-20.74659,12.56789
43.12800,-20.75259,12.53291
43.14000,-20.74973,12.50944
43.16200,-20.74393,12.46530
43.17400,-20.73920,12.44169
43.19600,-20.72550,12.39956
43.20800,-20.72078,12.37328
43.23000,-20.71254,12.32187
43.25200,-20.70877,12.27974
43.26400,-20.70472,12.25943
43.28600,-20.69465,12.22745
43.29800,-20.68963,12.21454
43.32000,-20.68769,12.18594
43.33200,-20.68752,12.16925
43.35400,-20.69003,12.13467
43.37600,-20.68542,12.09274
43.38800,-20.68283,12.07682
43.41000,-20.67943,12.05052
43.42200,-20.67772,12.03534
43.44400,-20.67074,12.02015
43.45600,-20.67088,12.00568
43.47800,-20.67278,11.98995
43.50000,-20.66842,11.96662
43.51200,-20.66571,11.95762
43.53400,-20.66146,11.94693
43.54600,-20.65592,11.94110
43.56800,-20.65296,11.93521
43.58000,-20.64929,11.93597
43.60200,-20.64287,11.93359
43.61400,-20.64178,11.93226
43.63600,-20.63460,11.92744
43.65800,-20.62593,11.93102
43.67000,-20.61743,11.93196
43.69200,-20.60614,11.93244
43.70400,-20.60642,11.93821
43.72600,-20.60407,11.95269
43.73800,-20.60157,11.96034
43.76000,-20.59500,11.96523
43.78200,-20.59092,11.95923
43.79400,-20.58529,11.95692
43.81600,-20.56828,11.95343
43.82800,-20.56212,11.95538
43.85000,-20.55131,11.96422
43.86200,-20.54422,11.96541
43.88400,-20.55003,11.97295
43.89600,-20.55054,11.97810
43.91800,-20.55229,11.98238
43.94000,-20.55067,11.98893
43.95200,-20.54868,11.99662
43.97400,-20.54416,11.99828
43.98600,-20.54468,12.00051
44.00800,-20.54764,12.00655
44.02000,-20.54962,12.01048
44.04200,-20.55553,12.02786
44.06400,-20.56562,12.03135
44.07600,-20.56830,12.03363
44.09800,-20.57147,12.04102
44.11000,-20.57548,12.04387
44.13200,-20.58628,12.05551
44.14400,-20.59257,12.06429
44.16600,-20.59675,12.07203
44.18800,-20.60401,12.07651
44.20000,-20.60437,12.07281
44.22200,-20.61027,12.06305
44.23400,-20.60819,12.06256
44.25100,-20.60434,12.05806
44.27300,-20.59333,12.05240
44.28500,-20.59093,12.05379
44.30700,-20.59305,12.05544
44.32900,-20.59240,12.05487
44.34100,-20.59294,12.06072
44.36300,-20.58826,12.06937
44.37500,-20.58463,12.07427
44.39700,-20.56948,12.08647
44.40900,-20.56433,12.08829
44.43100,-20.54628,12.08813
44.44328,-20.53757,12.08991
44.46500,-20.52565,12.09503
44.48700,-20.51740,12.08863
44.49900,-20.51754,12.08603
44.52100,-20.51403,12.06791
44.53300,-20.51237,12.06097
44.55500,-20.50941,12.05097
44.56700,-20.50843,12.04309
44.58900,-20.50222,12.03788
44.61100,-20.49926,12.03574
44.62300,-20.49812,12.04003
44.64500,-20.49393,12.04143
44.65700,-20.49040,12.04141
44.67900,-20.48949,12.04466
44.69100,-20.48576,12.04102
44.71300,-20.48132,12.04016
44.73500,-20.47350,12.03414
44.74700,-20.47018,12.02382
44.76900,-20.46282,12.01352
44.78100,-20.46491,12.00458
44.80300,-20.45583,11.98822
44.81500,-20.45375,11.97676
44.83700,-20.45120,11.95349
44.84900,-20.45406,11.93975
44.87100,-20.44636,11.91182
44.89300,-20.44363,11.88331
44.90500,-20.43581,11.86910
44.92700,-20.42055,11.83633
44.93900,-20.40968,11.81277
44.96100,-20.37214,11.76522
44.97300,-20.35966,11.74198
44.99500,-20.34344,11.69957
45.01700,-20.32301,11.66155
45.02900,-20.31736,11.64221
45.05100,-20.30737,11.60557
45.06300,-20.29826,11.57867
45.08500,-20.28549,11.52450
45.09700,-20.27673,11.49406
45.11900,-20.26076,11.44112
45.14100,-20.25154,11.40452
45.15300,-20.25028,11.39485
45.17500,-20.25115,11.38602
45.18700,-20.24458,11.38699
45.20900,-20.22979,11.38864
45.22100,-20.22564,11.38867
45.24300,-20.21751,11.37329
45.25500,-20.21946,11.36884
45.27700,-20.21268,11.35701
45.29900,-20.21385,11.34410
45.31100,-20.21195,11.33667
45.33300,-20.21576,11.33038
45.34500,-20.21584,11.32492
45.36700,-20.21465,11.31695
45.37900,-20.21657,11.31232
45.40100,-20.21803,11.29918
45.42300,-20.21699,11.28660
45.43500,-20.21920,11.28375
45.45700,-20.23295,11.26860
45.46900,-20.23883,11.26392
45.49100,-20.24993,11.24972
45.50300,-20.25754,11.23955
45.52500,-20.25518,11.23050
45.54700,-20.25052,11.21760
45.55900,-20.25262,11.21161
45.58100,-20.26378,11.20364
45.59300,-20.27286,11.20750
45.61500,-20.28772,11.20840
45.62700,-20.29822,11.21965
45.64900,-20.31569,11.23503
45.66100,-20.32168,11.24391
45.68300,-20.32939,11.25455
45.70500,-20.34299,11.27452
45.71700,-20.34984,11.28318
45.73900,-20.36298,11.30810
45.75100,-20.36833,11.31363
45.77300,-20.38278,11.32416
45.78500,-20.38687,11.32488
45.80700,-20.39590,11.32864
45.82900,-20.40042,11.33004
45.84100,-20.40516,11.32702
45.86300,-20.40393,11.33242
45.87500,-20.40452,11.32987
45.89700,-20.40406,11.33019
45.90900,-20.40379,11.32937
45.93100,-20.39657,11.32993
45.94328,-20.39119,11.32200
45.96500,-20.38750,11.30883
45.98700,-20.38370,11.29613
45.99900,-20.38087,11.28802
46.02100,-20.37758,11.27533
46.03300,-20.37468,11.26712
46.05500,-20.36836,11.25300
46.06700,-20.36784,11.24278
46.08900,-20.36490,11.23223
46.11100,-20.36384,11.21672
46.12300,-20.36379,11.21436
46.14500,-20.35522,11.20894
46.15700,-20.35174,11.20945
46.17900,-20.33731,11.21806
46.19100,-20.33609,11.22231
46.21300,-20.33785,11.22292
46.23500,-20.33618,11.22886
46.25200,-20.33401,11.22714
46.26400,-20.33389,11.22936
46.28600,-20.33845,11.21569
46.29800,-20.33400,11.21505
46.32000,-20.33251,11.21693
46.33200,-20.32844,11.21274
46.35400,-20.32357,11.20119
46.37600,-20.32115,11.19831
46.38800,-20.31838,11.19446
46.41000,-20.30970,11.18161
46.42200,-20.30769,11.17815
46.44400,-20.30454,11.17922
46.45600,-20.30053,11.17889
46.47800,-20.29169,11.18187
46.50000,-20.28893,11.18601
46.51200,-20.28954,11.18925
46.53400,-20.28617,11.18621
46.54600,-20.28293,11.18132
46.56800,-20.27386,11.18006
46.58000,-20.26794,11.17953
46.60200,-20.26422,11.17402
46.61400,-20.26971,11.17296
46.63600,-20.26959,11.15952
46.65800,-20.26810,11.15270
46.67000,-20.26634,11.14888
46.69200,-20.27036,11.13802
46.70400,-20.26771,11.13606
46.72600,-20.27165,11.12903
46.73800,-20.27015,11.12939
46.76000,-20.27015,11.13106
46.78200,-20.26968,11.12652
46.79400,-20.27297,11.12207
46.81600,-20.27291,11.11690
46.82800,-20.27441,11.11412
46.85000,-20.27202,11.09921
46.86200,-20.26857,11.09688
46.88400,-20.27399,11.08824
46.89600,-20.27216,11.08046
46.91800,-20.26873,11.07455
46.94000,-20.26140,11.06577
46.95200,-20.25990,11.06028
46.97400,-20.25726,11.05575
46.98600,-20.25126,11.05585
47.00800,-20.22849,11.05581
47.02000,-20.22038,11.05668
47.04200,-20.22182,11.04227
47.06400,-20.22527,11.02145
47.07600,-20.23024,11.00661
47.09800,-20.22728,10.99405
47.11000,-20.23047,10.99062
47.13200,-20.24065,10.97934
47.14400,-20.24289,10.97268
47.16600,-20.25078,10.95646
47.18800,-20.25758,10.94322
47.20000,-20.26881,10.93565
47.22200,-20.28207,10.92175
47.23400,-20.28402,10.91487
47.25600,-20.28810,10.89574
47.26800,-20.28872,10.88450
47.29000,-20.28758,10.85964
47.30200,-20.28539,10.84888
47.32400,-20.29409,10.83099
47.34600,-20.30010,10.80451
47.35800,-20.30019,10.78927
47.38000,-20.29838,10.76524
47.39200,-20.29491,10.75550
47.41400,-20.29201,10.75291
47.42600,-20.28136,10.75532
47.44800,-20.24779,10.73854
47.47000,-20.20980,10.70659
47.48200,-20.19046,10.68562
47.50400,-20.17051,10.66096
47.51600,-20.15511,10.65028
47.53800,-20.14901,10.66348
47.55000,-20.14696,10.68427
47.57200,-20.12168,10.72140
47.59400,-20.09815,10.76375
47.60600,-20.09231,10.77353
47.62800,-20.08483,10.78421
47.64000,-20.08410,10.78454
47.66200,-20.08484,10.78168
47.67400,-20.08751,10.78312
47.69600,-20.09661,10.77956
47.70800,-20.10214,10.77697
47.73000,-20.11440,10.77296
47.75200,-20.12526,10.75893
47.76400,-20.13126,10.75812
47.78600,-20.14153,10.75198
47.79800,-20.14624,10.75241
47.82000,-20.16405,10.75341
47.83200,-20.17012,10.75634
47.85400,-20.17828,10.75624
47.87600,-20.19095,10.74299
47.88800,-20.19708,10.73305
47.91000,-20.20998,10.70815
47.92200,-20.21553,10.69771
47.94400,-20.23294,10.69781
47.95600,-20.24442,10.69739
47.97800,-20.26285,10.69720
48.00000,-20.27833,10.68890
48.01200,-20.28403,10.68850
48.03400,-20.28710,10.68735
48.04600,-20.28850,10.68807
48.06800,-20.29164,10.67968
48.08000,-20.29207,10.67419
48.10200,-20.30316,10.67440
48.11400,-20.31554,10.66945
48.13600,-20.33414,10.65221
48.15800,-20.35929,10.63926
48.17000,-20.37486,10.62780
48.19200,-20.39454,10.60800
48.20400,-20.40335,10.60308
48.22600,-20.42150,10.59345
48.23800,-20.43380,10.59017
48.25500,-20.45096,10.58574
48.27700,-20.47071,10.58659
48.29900,-20.48966,10.58618
48.31100,-20.49891,10.58555
48.33300,-20.51068,10.57970
48.34500,-20.51574,10.57818
48.36700,-20.52633,10.57418
48.37900,-20.52948,10.57511
48.40100,-20.53420,10.57670
48.42300,-20.54515,10.57471
48.43500,-20.55076,10.57755
48.45700,-20.56148,10.57459
48.46900,-20.56416,10.58331
48.49100,-20.57779,10.61261
48.50300,-20.58415,10.62434
48.52500,-20.59774,10.63932
48.54700,-20.60281,10.64716
48.55900,-20.60205,10.64516
48.58100,-20.59392,10.62260
48.59300,-20.59056,10.61495
48.61500,-20.59526,10.59910
48.62700,-20.59653,10.59631
48.64900,-20.59831,10.58905
48.66100,-20.59749,10.58382
48.68300,-20.59933,10.57433
48.70500,-20.58987,10.56590
48.71700,-20.58225,10.56151
48.73900,-20.57369,10.57219
48.75100,-20.56926,10.57673
48.77300,-20.55951,10.58786
48.78500,-20.55102,10.59096
48.80700,-20.54671,10.59484
48.82900,-20.53416,10.59742
48.84100,-20.52612,10.59529
48.86300,-20.52080,10.59890
48.87500,-20.51513,10.60329
48.89700,-20.50668,10.60775
48.90900,-20.50189,10.60999
48.93100,-20.49380,10.61462
48.94328,-20.48988,10.61580
48.96500,-20.48448,10.61189
48.98700,-20.48301,10.61443
48.99900,-20.48054,10.61329
49.02100,-20.47766,10.60470
49.03300,-20.48196,10.60371
49.05500,-20.48747,10.59773
49.06700,-20.49108,10.59422
49.08900,-20.50085,10.58606
49.11100,-20.51108,10.57840
49.12300,-20.51026,10.57292
49.14500,-20.51616,10.57027
49.15700,-20.51465,10.56763
49.17900,-20.51981,10.56351
49.19100,-20.51919,10.56025
49.21300,-20.51434,10.56169
49.23500,-20.51444,10.55812
49.24700,-20.51791,10.55731
49.26900,-20.51943,10.55987
49.28100,-20.52004,10.55825
49.30300,-20.52472,10.55315
49.31500,-20.52437,10.55206
49.33700,-20.51913,10.54527
49.34900,-20.52055,10.54339
49.37100,-20.52725,10.54231
49.39300,-20.53379,10.53920
49.40500,-20.53711,10.53823
49.42700,-20.54195,10.52690
49.43900,-20.54301,10.53068
49.46100,-20.54422,10.53963
49.47300,-20.54305,10.54563
49.49500,-20.53922,10.54315
49.51700,-20.54306,10.54570
49.52900,-20.54737,10.54444
49.55100,-20.54960,10.54166
49.56300,-20.54994,10.54100
49.58500,-20.54332,10.53798
49.59700,-20.54135,10.53722
49.61900,-20.53292,10.53428
49.64100,-20.52805,10.52966
49.65300,-20.52531,10.52625
49.67500,-20.51355,10.52946
49.68700,-20.51225,10.53132
49.70900,-20.51251,10.53444
49.72100,-20.51358,10.53576
49.74300,-20.50694,10.53226
49.75500,-20.50836,10.52894
49.77700,-20.51250,10.52848
49.79900,-20.50256,10.52421
49.81100,-20.50294,10.52072
49.83300,-20.50143,10.52098
49.84500,-20.50039,10.51952
49.86700,-20.49902,10.51941
49.87900,-20.50078,10.51509
49.90100,-20.50901,10.50848
49.92300,-20.51563,10.49724
49.93500,-20.51743,10.50007
49.95700,-20.51662,10.49112
49.96900,-20.51696,10.49108
49.99100,-20.51901,10.49239
50.00300,-20.52181,10.49414
50.02500,-20.53051,10.49916
50.04700,-20.53583,10.50186
50.05900,-20.53775,10.50131
50.08100,-20.54596,10.50377
50.09300,-20.54526,10.50291
50.11500,-20.54762,10.50204
50.12700,-20.55073,10.50371
50.14900,-20.55081,10.50021
50.16100,-20.54714,10.50304
50.18300,-20.55092,10.50364
50.20500,-20.55603,10.49785
50.21700,-20.55324,10.50038
50.23900,-20.55558,10.49748
50.25600,-20.55326,10.49689
50.26800,-20.55189,10.49956
50.29000,-20.54611,10.50502
50.30200,-20.54446,10.50458
50.32400,-20.53563,10.51016
50.34600,-20.54031,10.51359
50.35800,-20.53996,10.51267
50.38000,-20.54464,10.52037
50.39200,-20.54397,10.51662
50.41400,-20.53857,10.51121
50.42600,-20.53839,10.51195
50.44800,-20.52839,10.50384
50.47000,-20.52744,10.50164
50.48200,-20.52739,10.50400
50.50400,-20.52071,10.50685
50.51600,-20.51756,10.50183
50.53800,-20.51598,10.50239
50.55000,-20.51612,10.49968
50.57200,-20.51759,10.49269
50.59400,-20.51191,10.49976
50.60600,-20.50889,10.49649
50.62800,-20.50804,10.49744
50.64000,-20.50820,10.49401
50.66200,-20.50811,10.49155
50.67400,-20.50845,10.49081
50.69600,-20.50740,10.48969
50.70800,-20.50575,10.48782
50.73000,-20.51177,10.48695
50.75200,-20.51418,10.48477
50.76400,-20.51312,10.48478
50.78600,-20.51664,10.48644
50.79800,-20.51821,10.48706
50.82000,-20.51386,10.49431
50.83200,-20.51266,10.49788
50.85400,-20.51255,10.50036
50.87600,-20.50904,10.50135
50.88800,-20.51094,10.50041
50.91000,-20.50486,10.50210
50.92200,-20.50898,10.49757
50.94400,-20.50757,10.50003
50.95600,-20.51098,10.50560
50.97800,-20.51271,10.50436
51.00000,-20.52086,10.49939
51.01200,-20.52090,10.49824
51.03400,-20.52182,10.49983
51.04600,-20.52164,10.50375
51.06800,-20.52366,10.51532
51.08000,-20.52511,10.51773
51.10200,-20.52702,10.51544
51.11400,-20.53025,10.51548
51.13600,-20.54269,10.51497
51.15800,-20.55296,10.51257
51.17000,-20.55998,10.51375
51.19200,-20.56836,10.50687
51.20400,-20.57159,10.50483
51.22600,-20.58075,10.48851
51.23800,-20.58126,10.48269
51.26000,-20.58409,10.47668
51.28200,-20.58424,10.47180
51.29400,-20.58061,10.47140
51.31600,-20.57474,10.46149
51.32800,-20.57135,10.46182
51.35000,-20.57172,10.46294
51.36200,-20.57352,10.46509
51.38400,-20.56538,10.46304
51.39600,-20.56415,10.46275
51.41800,-20.56586,10.46616
51.44000,-20.55951,10.46711
51.45200,-20.55765,10.46831
51.47400,-20.54909,10.47784
51.48600,-20.54396,10.48467
51.50800,-20.53504,10.48738
51.52000,-20.53250,10.49086
51.54200,-20.53174,10.49226
51.56400,-20.53177,10.49633
51.57600,-20.52999,10.49566
51.59800,-20.53170,10.50267
51.61000,-20.53210,10.50211
51.63200,-20.52841,10.50763
51.64400,-20.52768,10.50732
51.66600,-20.52704,10.50882
51.68800,-20.51831,10.50274
51.70000,-20.51766,10.50280
51.72200,-20.52231,10.50462
51.73400,-20.52411,10.50875
51.75600,-20.52389,10.51296
51.76800,-20.52403,10.51755
51.79000,-20.53005,10.51610
51.80200,-20.53454,10.51505
51.82400,-20.53685,10.51022
51.84600,-20.53680,10.51080
51.85800,-20.53699,10.50372
51.88000,-20.55135,10.49617
51.89200,-20.55401,10.49708
51.91400,-20.55661,10.49840
51.92600,-20.55806,10.49865
51.94800,-20.55969,10.49703
51.97000,-20.56772,10.49311
51.98200,-20.56878,10.49091
52.00400,-20.56271,10.49061
52.01600,-20.56343,10.49250
52.03800,-20.56903,10.49967
52.05000,-20.57114,10.49774
52.07200,-20.57075,10.50139
52.09400,-20.56681,10.50720
52.10600,-20.56302,10.51039
52.12800,-20.56021,10.51624
52.14000,-20.55872,10.52345
52.16200,-20.56055,10.52970
52.17400,-20.56422,10.53484
52.19600,-20.56499,10.53707
52.20800,-20.56719,10.53770
52.23000,-20.57817,10.54503
52.25700,-20.57155,10.55168
52.26900,-20.57372,10.55700
52.28100,-20.57635,10.55731
52.30300,-20.57631,10.55828
52.31500,-20.57878,10.56298
52.33700,-20.57777,10.57669
52.34900,-20.57607,10.58192
52.37100,-20.57379,10.58449
52.39300,-20.57537,10.58672
52.40500,-20.57543,10.58881
52.42700,-20.57388,10.59050
52.43900,-20.57099,10.58863
52.46100,-20.55970,10.58963
52.47300,-20.56147,10.58422
52.49500,-20.56301,10.58238
52.51700,-20.56517,10.59407
52.52900,-20.56512,10.59514
52.55100,-20.56257,10.60951
52.56300,-20.56117,10.61035
52.58500,-20.55892,10.61764
52.59700,-20.55719,10.62501
52.61900,-20.55578,10.62964
52.64100,-20.56038,10.63780
52.65300,-20.56182,10.64060
52.67500,-20.56400,10.64269
52.68700,-20.56348,10.64725
52.70900,-20.56179,10.64948
52.72100,-20.56233,10.64906
52.74300,-20.56071,10.64465
52.75500,-20.56163,10.64868
52.77700,-20.56412,10.65205
52.79900,-20.57840,10.65702
52.81100,-20.58179,10.65367
52.83300,-20.58461,10.65272
52.84500,-20.58716,10.65302
52.86700,-20.58735,10.65109
52.87900,-20.59220,10.65110
52.90100,-20.59792,10.64736
52.92300,-20.59900,10.64578
