Time,Phi (degrees),Theta (degrees)
0.00000,0.00000,0.00000
0.02200,-0.67737,-0.92619
0.03400,-0.99051,-1.23484
0.05600,-1.51344,-1.75023
0.06800,-1.68981,-2.02628
0.09000,-2.06903,-2.32842
0.10200,-2.23199,-2.46520
0.12400,-2.43505,-2.71825
0.14600,-2.59625,-2.89481
0.15800,-2.68978,-3.02110
0.18000,-2.76320,-3.29001
0.19200,-2.84264,-3.33461
0.21400,-2.90121,-3.48363
0.22600,-2.96055,-3.52759
0.24800,-3.01238,-3.56923
0.26000,-3.04151,-3.58818
0.28200,-3.07798,-3.69827
0.30400,-3.06984,-3.69619
0.31600,-3.09544,-3.73106
0.33800,-3.14261,-3.72881
0.35000,-3.13646,-3.71071
0.37200,-3.21664,-3.73278
0.38400,-3.22926,-3.76926
0.41100,-3.23161,-3.77625
0.42300,-3.23345,-3.80854
0.44500,-3.25054,-3.90069
0.45700,-3.24669,-3.89992
0.47900,-3.21829,-3.87596
0.49100,-3.19042,-3.88622
0.51300,-3.17427,-3.90670
0.52500,-3.20920,-3.88774
0.54700,-3.22078,-3.90312
0.56900,-3.21794,-3.91512
0.58100,-3.24287,-3.92460
0.60300,-3.25606,-3.86558
0.61500,-3.25408,-3.88634
0.63700,-3.23933,-3.92784
0.64900,-3.23102,-3.89112
0.67100,-3.28920,-3.83788
0.69300,-3.26511,-3.86799
0.70500,-3.24194,-3.88946
0.72700,-3.24667,-3.89481
0.73900,-3.25003,-3.88681
0.76100,-3.23296,-3.85887
0.77300,-3.24212,-3.82226
0.79500,-3.27128,-3.83314
0.80700,-3.28525,-3.86740
0.82900,-3.28433,-3.87028
0.85100,-3.24596,-3.90514
0.86300,-3.22180,-3.91501
0.88500,-3.23075,-3.94438
0.89700,-3.23558,-3.95239
0.91900,-3.19985,-3.96224
0.93100,-3.19077,-3.95392
0.95300,-3.17062,-3.95985
0.97500,-3.18742,-3.98813
0.98700,-3.17774,-3.98239
1.00900,-3.23443,-3.98424
1.02100,-3.25831,-3.97912
1.04300,-3.23007,-3.97097
1.05500,-3.21450,-3.96610
1.07700,-3.24363,-3.98143
1.09900,-3.21930,-3.93225
1.11100,-3.21375,-3.95899
1.13300,-3.23204,-3.89362
1.14500,-3.25665,-3.89899
1.16700,-3.23983,-3.96671
1.17900,-3.23974,-3.97756
1.20100,-3.21417,-3.97636
1.21300,-3.19481,-3.98626
1.23500,-3.19962,-4.02537
1.25700,-3.20900,-4.00005
1.26900,-3.24209,-3.99322
1.29100,-3.26209,-4.02989
1.30300,-3.26332,-4.02722
1.32500,-3.22981,-4.00989
1.33700,-3.23325,-4.01598
1.35900,-3.23729,-3.98363
1.38100,-3.25015,-3.98550
1.39300,-3.24382,-3.97912
1.41500,-3.26479,-3.97569
1.42700,-3.24531,-3.94197
1.44900,-3.25855,-3.93986
1.46100,-3.27556,-3.93734
1.48300,-3.23675,-3.96376
1.50500,-3.25750,-3.93287
1.51700,-3.26879,-3.94090
1.53900,-3.24708,-3.91761
1.55100,-3.25474,-3.92044
1.57300,-3.26619,-3.95186
1.58500,-3.23914,-3.96426
1.60700,-3.23846,-3.93361
1.61900,-3.24553,-3.94187
1.64100,-3.23261,-3.98856
1.66300,-3.23568,-3.98108
1.67500,-3.22820,-3.97418
1.69700,-3.22305,-3.96928
1.70900,-3.23516,-3.98532
1.73100,-3.22669,-3.97601
1.74300,-3.21525,-3.97337
1.76500,-3.21904,-3.95813
1.78700,-3.15840,-4.09498
1.79900,-3.08719,-4.30353
1.82100,-4.20348,-2.72600
1.83300,-4.41272,-1.61287
1.85500,-3.50919,-2.25779
1.86700,-3.30443,-2.74387
1.88900,-3.17732,-3.31464
1.91100,-3.24242,-3.22856
1.92300,-3.27686,-3.17292
1.94500,-3.22255,-3.39949
1.95700,-3.26399,-3.32421
1.97900,-3.24643,-3.30949
1.99100,-3.38487,-2.99133
2.01300,-3.46355,-3.03727
2.02500,-3.52301,-2.87162
2.04700,-3.50655,-2.93911
2.06900,-3.43244,-3.14649
2.08100,-3.45526,-3.24114
2.10300,-3.49019,-3.31142
2.11500,-3.52820,-3.22322
2.13700,-3.39244,-3.13464
2.14900,-3.36043,-3.19605
2.17100,-3.32310,-3.40621
2.19300,-3.25265,-3.30392
2.20500,-3.22157,-2.71941
2.22700,-3.39880,-2.59088
2.23900,-3.41426,-2.73622
2.26100,-3.06385,-3.35298
2.27300,-2.96278,-3.38676
2.29500,-2.99494,-3.35913
2.30700,-3.05143,-3.23377
2.32900,-3.12352,-3.04995
2.35100,-3.05586,-3.20956
2.36300,-3.07165,-3.07002
2.38500,-3.08188,-3.11831
2.39700,-3.07830,-3.14969
2.41400,-2.95745,-3.28849
2.43600,-2.40410,-3.77131
2.44800,-2.35807,-3.93450
2.47000,-2.10207,-4.80069
2.49200,-1.76256,-6.16319
2.50400,-1.42859,-6.79858
2.52600,-1.59988,-6.40516
2.53800,-1.60366,-6.71455
2.56000,-1.23774,-7.94596
2.57200,-1.20457,-8.16368
2.59400,-1.18210,-8.29928
2.61600,-1.61011,-7.28207
2.62800,-2.02386,-7.33660
2.65000,-2.06669,-7.70851
2.66200,-2.15723,-7.57118
2.68400,-2.16835,-8.23505
2.69600,-2.04444,-7.44804
2.71800,-1.84578,-6.09509
2.74000,-1.31391,-3.82009
2.75200,-0.85981,-2.62487
2.77400,-0.37697,-0.54395
2.78600,-0.18403,-0.87175
2.80800,0.24624,-3.70539
2.82000,0.54803,-4.66994
2.84200,0.92648,-6.90528
2.85400,1.18966,-7.53624
2.87600,1.76338,-7.86307
2.89800,2.22588,-8.22365
2.91000,2.63538,-8.79900
2.93200,3.55633,-9.21536
2.94400,4.14098,-9.34898
2.96600,5.37511,-9.52976
2.97800,6.08622,-9.34408
3.00000,6.93190,-9.04099
3.02200,6.73404,-9.76977
3.03400,6.22558,-10.85223
3.05600,4.89339,-11.75213
3.06800,4.69288,-11.63005
3.09000,4.70764,-10.95040
3.10200,4.88662,-10.17818
3.12400,5.28214,-8.56821
3.13600,5.19301,-8.21484
3.15800,4.74243,-9.09990
3.18000,4.41564,-9.28919
3.19200,4.26093,-9.44825
3.21400,3.87993,-10.03680
3.22600,3.80453,-10.12117
3.24800,3.82503,-9.93356
3.26000,3.74394,-10.22455
3.28200,3.47310,-10.66062
3.30400,3.39329,-11.01742
3.31600,3.43434,-11.24175
3.33800,3.31519,-11.78738
3.35000,3.35423,-11.59319
3.37200,3.43730,-11.15965
3.38400,3.51205,-10.90377
3.40600,3.73454,-9.83165
3.42800,3.91412,-9.35554
3.44000,3.88761,-9.51104
3.46200,3.51427,-10.42465
3.47400,3.45310,-10.64493
3.49600,3.32009,-11.10590
3.50800,3.44269,-10.95558
3.53000,3.77883,-10.01148
3.54200,3.89592,-9.66755
3.56400,4.09240,-9.61733
3.58600,4.01622,-10.83323
3.59800,3.78949,-12.31377
3.62000,3.67570,-13.37491
3.63200,3.76629,-13.47124
3.65400,4.12314,-12.26781
3.66600,4.29717,-11.61753
3.68800,4.34591,-11.27206
3.71000,4.31849,-10.87883
3.72200,4.19040,-11.10272
3.74400,4.00571,-11.91056
3.75600,4.28986,-11.35501
3.77800,5.02860,-7.64879
3.79000,5.31672,-6.13834
3.81200,5.42335,-5.11229
3.83400,5.15228,-6.45436
3.84600,4.85297,-8.68797
3.86800,4.41901,-11.71928
3.88000,4.54434,-11.82063
3.90200,5.00881,-10.69518
3.91400,5.20141,-10.15944
3.93600,5.49741,-9.17518
3.94800,5.61051,-8.75983
3.97000,5.74609,-8.59639
3.99200,5.80642,-9.01559
4.00400,5.89278,-8.66150
4.02600,5.97909,-8.39480
4.03800,5.95932,-8.47027
4.06000,5.74903,-8.82047
4.07200,5.71113,-8.81536
4.09400,5.72436,-9.59926
4.11600,5.48642,-10.19581
4.12800,5.35317,-10.30959
4.15000,5.39892,-9.88331
4.16200,5.34455,-9.74935
4.18400,5.06687,-9.71637
4.19600,4.97010,-9.49813
4.21800,4.87787,-9.37010
4.24000,4.81271,-10.11660
4.25200,4.75826,-10.71776
4.27400,4.67715,-11.74344
4.28600,4.68891,-11.73084
4.30800,4.60093,-11.53513
4.32000,4.48315,-11.51277
4.34200,4.30884,-10.74765
4.35400,4.28136,-10.59547
4.37600,4.29225,-10.90316
4.39800,4.31572,-11.21500
4.41500,4.32711,-11.43016
4.42700,4.30533,-11.87809
4.44900,4.27426,-12.31573
4.46100,4.22577,-12.54272
4.48300,3.92002,-13.21621
4.49500,3.68148,-13.63622
4.51700,3.69563,-13.48115
4.53900,4.03894,-12.95314
4.55100,4.21307,-12.94112
4.57300,4.46756,-12.86117
4.58500,4.51944,-13.14143
4.60700,4.56956,-13.64568
4.61900,4.62298,-14.06803
4.64100,4.89205,-14.21636
4.66300,5.30057,-13.78641
4.67500,5.43046,-13.54141
4.69700,5.54516,-13.27219
4.70900,5.58935,-13.07442
4.73100,5.72486,-12.72864
4.74300,5.77962,-12.37393
4.76500,6.03902,-11.26049
4.78700,6.35956,-9.29257
4.79900,6.52526,-8.07388
4.82100,6.63232,-6.27125
4.83300,6.68366,-6.28264
4.85500,6.53380,-7.87290
4.86700,6.49641,-8.35194
4.88900,6.56195,-8.40831
4.90100,6.63695,-8.19573
4.92300,7.05208,-7.30339
4.94500,7.47961,-6.32426
4.95700,7.60909,-6.12902
4.97900,7.62632,-6.25855
4.99100,7.63417,-6.63754
5.01300,7.59772,-7.66743
5.02500,7.75148,-7.70567
5.04700,8.33692,-7.25305
5.06900,8.82694,-6.75086
5.08100,8.99334,-6.60723
5.10300,9.20545,-6.28124
5.11500,9.29610,-6.28723
5.13700,9.47461,-6.19455
5.14900,9.65665,-6.02202
5.17100,9.94265,-5.85249
5.19300,10.14681,-6.06748
5.20500,10.23474,-6.01988
5.22700,10.33590,-5.94227
5.23900,10.40050,-5.84368
5.26100,10.60262,-4.73563
5.27300,10.64566,-3.69070
5.29500,10.70091,-2.16972
5.30700,10.74830,-1.64513
5.32900,10.70836,-1.90214
5.35100,10.76717,-2.80128
5.36300,10.90714,-2.94693
5.38500,11.44436,-2.08481
5.39700,11.73340,-1.65903
5.41900,12.14230,-0.90717
5.43100,12.34762,-0.82429
5.45300,12.73471,-1.18412
5.47500,13.23487,-1.18876
5.48700,13.51029,-1.19867
5.50900,13.95338,-1.36682
5.52100,14.19789,-1.37477
5.54300,14.45510,-1.85953
5.55500,14.61427,-2.06080
5.57700,14.96372,-2.93165
5.58900,15.13628,-3.27502
5.61100,15.34733,-3.46376
5.63300,15.50535,-2.94485
5.64500,15.63902,-2.60986
5.66700,15.72071,-2.41266
5.67900,15.74490,-2.46604
5.70100,15.84785,-2.64966
5.71300,15.93208,-2.63475
5.73500,16.40721,-1.79360
5.75700,16.90207,-0.92051
5.76900,17.07835,-0.78739
5.79100,17.31058,-0.69687
5.80300,17.42949,-0.95161
5.82500,17.62781,-1.49558
5.83700,17.75623,-1.38587
5.85900,18.06473,-0.82608
5.88100,18.30891,-0.11155
5.89300,18.35243,0.11548
5.91500,18.31964,0.92856
5.92700,18.24119,1.21299
5.94900,18.09888,1.27802
5.96100,18.00027,1.16544
5.98300,17.93681,1.10987
5.99500,17.86184,0.91628
6.01700,17.83978,0.24048
6.03900,17.89007,-0.75924
6.05100,18.03538,-0.81664
6.07300,18.29792,-0.38903
6.08500,18.53850,0.06265
6.10700,18.84507,1.08818
6.11900,18.89519,1.35231
6.14100,19.15015,1.73196
6.16300,19.37914,2.14734
6.17500,19.51379,2.58006
6.19700,19.72454,3.22395
6.20900,19.90424,3.34279
6.23100,19.84616,4.12238
6.24300,19.88637,4.37646
6.26500,19.89772,4.89044
6.28700,20.05178,5.44539
6.29900,19.46997,5.77169
6.32100,19.07372,5.87865
6.33300,18.95596,5.86477
6.35500,18.42179,6.23537
6.36700,18.17107,6.40193
6.38900,17.82880,6.95793
6.40100,17.51885,6.91940
6.42800,16.81609,6.57538
6.44000,16.40968,6.11064
6.46200,15.65949,5.20194
6.47400,15.31407,5.31273
6.49600,14.96402,6.09580
6.50800,14.73446,6.14004
6.53000,14.23397,5.27994
6.54200,14.06926,5.02850
6.56400,13.89701,4.50143
6.58600,13.52937,2.87609
6.59800,13.30003,2.43223
6.62000,13.05059,2.27587
6.63200,12.87878,2.46837
6.65400,12.34751,2.75036
6.66600,12.12830,3.08680
6.68800,11.61581,3.84304
6.71000,10.91602,3.45068
6.72200,10.58223,3.52979
6.74400,9.99009,3.90815
6.75600,9.61451,4.12392
6.77800,8.61203,2.96661
6.79000,7.91098,1.69160
6.81200,6.81327,0.98307
6.83400,6.05881,0.12189
6.84600,5.86450,0.07876
6.86800,6.29680,2.30621
6.88000,6.49215,2.97186
6.90200,6.37569,3.58395
6.91400,6.07318,3.38425
6.93600,5.38008,2.96884
6.94800,5.08120,2.75126
6.97000,4.77946,2.38194
6.99200,4.78789,3.30793
7.00400,4.74330,4.13906
7.02600,4.39857,4.55753
7.03800,4.11935,4.84543
7.06000,3.33473,4.98473
7.07200,3.11183,5.06939
7.09400,3.11463,4.38928
7.11600,3.23152,3.58987
7.12800,3.23282,3.25304
7.15000,2.82888,2.27179
7.16200,2.60170,1.82349
7.18400,2.36230,0.98050
7.19600,2.29260,0.63031
7.21800,2.34360,0.09616
7.23029,2.19211,-0.60907
7.25200,1.83703,-1.79343
7.27400,1.60614,-2.85536
7.28600,1.48888,-3.42714
7.30800,1.07770,-5.94404
7.32000,0.84462,-5.94427
7.34200,0.48350,-5.87296
7.35400,0.25424,-5.98539
7.37600,-0.22485,-5.92967
7.39800,-0.45702,-5.73044
7.41000,-0.56238,-5.56328
7.43200,-0.83154,-5.31608
7.44400,-1.09377,-5.13849
7.46600,-1.72350,-4.59530
7.47800,-2.30827,-4.39899
7.50000,-4.55067,-4.28570
7.52200,-4.96820,-2.84740
7.53400,-5.04040,-2.37283
7.55600,-5.03877,-1.91567
7.56800,-4.92806,-1.91577
7.59000,-3.80062,-0.08643
7.60200,-3.70507,-0.28207
7.62400,-3.92594,0.29756
7.63600,-3.91193,0.20247
7.65800,-3.94746,0.27661
7.68000,-3.97511,0.25782
7.69200,-3.99423,0.23611
7.71400,-3.97869,0.18803
7.72600,-3.95587,0.14269
7.74800,-3.98438,0.16209
7.76000,-3.97882,0.17847
7.78200,-3.95156,0.11412
7.80400,-3.96170,0.03569
7.81600,-3.95314,-0.03977
7.83800,-3.95325,-0.10761
7.85000,-3.92200,-0.14519
7.87200,-3.84520,-0.36612
7.88400,-3.86634,-0.38644
7.90600,-3.81314,-0.49588
7.92800,-3.77134,-0.60637
7.94000,-3.76713,-0.63574
7.96200,-3.78533,-0.65460
7.97400,-3.79023,-0.68252
7.99600,-3.78574,-0.70002
8.00800,-3.79019,-0.71705
8.03000,-3.78205,-0.76184
8.04200,-3.77242,-0.76296
8.06400,-3.72859,-0.90380
8.08600,-3.75416,-0.83980
8.09800,-3.75762,-0.85949
8.12000,-3.76097,-0.88174
8.13200,-3.76525,-0.89599
8.15400,-3.75250,-0.93385
8.16600,-3.75705,-0.95115
8.18800,-3.73770,-0.99303
8.21000,-3.73485,-1.01213
8.22200,-3.73780,-1.02959
8.24400,-3.67005,-1.13967
8.25600,-3.64753,-1.21316
8.27800,-3.70565,-1.03831
8.29000,-3.71281,-1.04677
8.31200,-3.68117,-1.18102
8.33400,-3.66351,-1.25780
8.34600,-3.66234,-1.26781
8.36800,-3.66355,-1.28707
8.38000,-3.67790,-1.28154
8.40200,-3.65320,-1.35573
8.41900,-3.64601,-1.38662
8.43100,-3.65947,-1.34989
8.45300,-3.70073,-1.26071
8.47500,-3.68709,-1.30156
8.48700,-3.68644,-1.31227
8.50900,-3.67883,-1.33460
8.52100,-3.66883,-1.37404
8.54300,-3.63506,-1.49314
8.55500,-3.64287,-1.48389
8.57700,-3.63108,-1.52847
8.58900,-3.63828,-1.52929
8.61100,-3.63455,-1.57622
8.63300,-3.63133,-1.58068
8.64500,-3.61546,-1.62927
8.66700,-3.60291,-1.68944
8.67900,-3.60587,-1.67742
8.70100,-3.62063,-1.65669
8.71300,-3.60792,-1.70246
8.73500,-3.61063,-1.68516
8.75700,-3.60377,-1.72302
8.76900,-3.59417,-1.75816
8.79100,-3.59766,-1.79685
8.80300,-3.58859,-1.83254
8.82500,-3.57684,-1.85347
8.83700,-3.57694,-1.86826
8.85900,-3.60792,-1.75356
8.88100,-3.62323,-1.72989
8.89300,-3.60699,-1.77129
8.91500,-3.60888,-1.76177
8.92700,-3.61649,-1.74196
8.94900,-3.59928,-1.78401
8.96100,-3.60052,-1.78876
8.98300,-3.60786,-1.77691
8.99500,-3.60572,-1.78689
9.01700,-3.60760,-1.81106
9.03900,-3.60775,-1.82383
9.05100,-3.60359,-1.84210
9.07300,-3.60469,-1.85755
9.08500,-3.60063,-1.87069
9.10700,-3.59732,-1.88940
9.11900,-3.59411,-1.88892
9.14100,-3.59473,-1.91235
9.16300,-3.58454,-1.93340
9.17500,-3.58084,-1.94355
9.19700,-3.57725,-1.95713
9.20900,-3.57727,-1.96849
9.23100,-3.57470,-1.98679
9.24300,-3.57211,-1.99493
9.26500,-3.56150,-2.00686
9.28700,-3.56697,-2.01627
9.29900,-3.56816,-2.02796
9.32100,-3.57488,-2.03694
9.33300,-3.56774,-2.04704
9.35500,-3.56575,-2.07190
9.36700,-3.56383,-2.08194
9.38900,-3.56635,-2.09318
9.40100,-3.56585,-2.09824
9.42300,-3.56125,-2.11881
9.44500,-3.55430,-2.13573
9.45700,-3.55413,-2.13975
9.47900,-3.55121,-2.15415
9.49100,-3.55217,-2.16138
9.51300,-3.54540,-2.16588
9.52500,-3.54648,-2.17386
9.54700,-3.54394,-2.18982
9.56900,-3.54292,-2.19533
9.58100,-3.53800,-2.20196
9.60300,-3.53660,-2.22331
9.61500,-3.53665,-2.22778
9.63700,-3.53848,-2.24627
9.64900,-3.53711,-2.25104
9.67100,-3.53773,-2.27087
9.68300,-3.53705,-2.27842
9.70500,-3.53672,-2.29515
9.72700,-3.53733,-2.31101
9.73900,-3.53653,-2.31481
9.76100,-3.52950,-2.33016
9.77300,-3.52970,-2.33305
9.79500,-3.51744,-2.34440
9.80700,-3.52053,-2.35067
9.82900,-3.51627,-2.36178
9.85100,-3.51153,-2.37258
9.86300,-3.50891,-2.37754
9.88500,-3.50327,-2.38701
9.89700,-3.50434,-2.39241
9.91900,-3.49925,-2.40521
9.93100,-3.49472,-2.40838
9.95300,-3.49899,-2.42286
9.97500,-3.49498,-2.43555
9.98700,-3.49401,-2.44184
10.00900,-3.49647,-2.44630
10.02100,-3.49575,-2.45673
10.04300,-3.49576,-2.47125
10.05500,-3.49517,-2.48147
10.07700,-3.50180,-2.49532
10.08900,-3.50281,-2.50594
10.11100,-3.50731,-2.52538
10.13300,-3.50341,-2.52696
10.14500,-3.50107,-2.53383
10.16700,-3.50052,-2.54662
10.17900,-3.50198,-2.55780
10.20100,-3.50647,-2.56299
10.21300,-3.50650,-2.57068
10.23500,-3.51011,-2.58639
10.25700,-3.50204,-2.59762
10.26900,-3.50451,-2.60260
10.29100,-3.43708,-2.81285
10.30300,-3.43737,-2.80741
10.32500,-3.45326,-2.76280
10.33700,-3.45568,-2.73633
10.35900,-3.46308,-2.72208
10.38100,-3.46664,-2.67937
10.39300,-3.47582,-2.65052
10.42000,-3.47367,-2.66211
10.43200,-3.47102,-2.66880
10.44400,-3.46312,-2.67988
10.46600,-3.47471,-2.64529
10.47800,-3.47231,-2.65511
10.50000,-3.47533,-2.66842
10.52200,-3.45963,-2.71557
10.53400,-3.45682,-2.71785
10.55600,-3.45327,-2.72653
10.56800,-3.45365,-2.72868
10.59000,-3.45446,-2.72584
10.60200,-3.44951,-2.73248
10.62400,-3.44840,-2.72651
10.63600,-3.45091,-2.73624
10.65800,-3.38613,-2.74230
10.68000,-3.39214,-2.74755
10.69200,-3.38680,-2.75458
10.71400,-3.37820,-2.76521
10.72600,-3.40440,-2.79821
10.74800,-3.40994,-3.15108
10.76000,-3.37668,-3.43594
10.78200,-3.35060,-3.88664
10.80400,-3.40900,-4.08743
10.81600,-3.46985,-4.14462
10.83800,-3.53312,-4.32809
10.85000,-3.56929,-4.45584
10.87200,-3.58021,-4.80357
10.88400,-3.55011,-5.07707
10.90600,-3.57680,-5.46205
10.92800,-3.65300,-5.59405
10.94000,-3.76088,-5.54287
10.96200,-4.06723,-5.54283
10.97400,-4.22953,-5.71766
10.99600,-4.38516,-6.47522
11.00800,-4.70923,-6.51730
11.03000,-5.65461,-5.94707
11.04200,-5.82857,-5.54940
11.06400,-5.78423,-4.93729
11.08600,-5.60750,-4.12318
11.09800,-5.43305,-3.62723
11.12000,-5.21881,-3.19500
11.13200,-5.06345,-2.93729
11.15400,-4.56375,-2.47615
11.16600,-4.39990,-2.73024
11.18800,-4.16791,-3.04126
11.21000,-3.73338,-2.58669
11.22200,-3.52369,-2.40803
11.24400,-3.20330,-2.57589
11.25600,-2.96971,-2.55463
11.27800,-2.63660,-3.14901
11.29000,-2.57913,-4.07001
11.31200,-2.29613,-3.62921
11.32429,-2.03561,-2.90919
11.34600,-1.57833,-1.80784
11.36800,-1.21714,-0.58220
11.38000,-0.98246,0.32045
11.40200,-0.89463,0.76232
11.41400,-0.96946,0.77614
11.43600,-1.00672,2.12295
11.44800,-0.90353,2.85486
11.47000,-0.87705,2.84475
11.49200,-1.00380,1.47193
11.50400,-1.00914,1.15757
11.52600,-0.78689,1.00153
11.53800,-0.63853,1.18464
11.56000,-0.14366,2.30305
11.57200,0.18946,2.85388
11.59400,0.61655,2.75134
11.61600,0.98324,1.30216
11.62800,1.15513,0.02408
11.65000,1.57090,-1.39146
11.66200,1.94842,-1.21800
11.68400,2.74631,-0.30343
11.69600,3.11367,-0.06012
11.71800,3.64503,0.30007
11.73000,3.83924,0.15839
11.75200,4.00059,-0.32214
11.77400,4.34433,0.14389
11.78600,4.66201,1.08053
11.80800,5.27742,3.11743
11.82000,5.55455,3.86643
11.84200,5.90535,3.34413
11.85400,5.88468,1.90094
11.87600,5.67471,-1.52768
11.89800,5.95522,-2.32231
11.91000,6.31386,-1.77333
11.93200,6.89513,-0.38551
11.94400,7.10860,0.09668
11.96600,7.19328,0.18466
11.97829,7.20675,-0.30947
12.00000,7.08324,-0.76472
12.02200,7.01748,0.31408
12.03400,7.05593,1.57354
12.05600,7.06470,4.01214
12.06800,7.01358,4.95797
12.09000,6.70935,4.90445
12.10200,6.37323,4.01782
12.12400,5.62941,1.90177
12.13600,5.33185,1.56024
12.15800,5.17753,2.00468
12.18000,5.20810,2.90459
12.19200,5.22689,3.38722
12.21400,5.14567,3.15101
12.22600,5.07756,2.81257
12.24800,5.02530,2.06095
12.26000,5.10297,1.68718
12.28200,5.45459,2.11591
12.30400,5.14013,2.15331
12.31600,5.27003,1.98226
12.33800,5.32218,1.60181
12.35000,5.27681,1.44475
12.37200,5.15779,0.74668
12.38400,5.20898,0.89357
12.40600,5.37974,1.02473
12.42300,5.46526,0.93188
12.44500,5.48731,0.73830
12.45700,5.48289,0.21670
12.47900,5.37026,-0.93192
12.49100,5.35255,-1.13100
12.51300,5.41604,-0.82213
12.52500,5.49823,-0.30398
12.54700,5.83360,0.91458
12.55928,5.95075,1.43335
12.58100,5.87798,1.38808
12.60300,5.68569,0.80161
12.61500,5.68288,0.55707
12.63700,5.94446,0.90473
12.64900,6.15387,1.39672
12.67100,6.52006,2.61884
12.68300,6.77688,3.49265
12.70500,7.31047,5.09632
12.72700,7.85644,7.09614
12.73900,7.98318,7.31386
12.76100,7.99774,6.98089
12.77300,7.92793,6.47829
12.79500,7.52143,5.49028
12.80700,7.18813,4.61085
12.82900,6.51161,2.77004
12.85100,5.99809,1.42469
12.86300,5.76585,0.98698
12.88500,5.46814,0.85571
12.89700,5.40385,1.00231
12.91900,5.19232,1.07752
12.93100,4.94901,0.92260
12.95300,4.42630,0.18508
12.96500,4.18060,-0.19666
12.98700,3.73268,-0.83229
13.00900,3.32019,-0.80040
13.02100,3.25602,-0.78673
13.04300,3.05476,-0.54925
13.05500,2.99029,-0.51410
13.07700,2.91435,-0.48094
13.08900,2.89748,-0.50866
13.11100,2.94783,-0.17446
13.13300,2.97720,0.13945
13.14500,2.97838,0.32746
13.16700,2.84455,0.45129
13.17900,2.87365,0.91688
13.20100,2.80778,1.15763
13.21300,2.75560,1.21486
13.23500,2.51546,0.80299
13.25700,2.31534,0.32516
13.26900,2.22335,0.04459
13.29100,2.05414,-0.18770
13.30300,2.00287,-0.17131
13.32500,1.89858,0.05781
13.33700,1.79587,0.05156
13.35900,1.60239,-0.05306
13.37100,1.52459,-0.01922
13.39300,1.33541,-0.17772
13.41500,1.07381,-0.48458
13.42700,0.96692,-0.20246
13.44900,0.76431,0.23652
13.46100,0.66880,0.46606
13.48300,0.75839,0.76736
13.49500,-0.05881,0.01639
13.51700,-0.56493,-1.71095
13.53900,-0.62281,-2.19188
13.55100,-0.53755,-2.37093
13.57300,-0.39009,-1.92774
13.58500,-0.44788,-2.00229
13.60700,-0.76876,-2.58995
13.61900,-1.08271,-3.07519
13.64100,-1.80522,-4.03512
13.66300,-2.37368,-4.39675
13.67500,-2.68526,-4.53246
13.69700,-3.21807,-4.78024
13.70900,-3.46055,-5.01895
13.73100,-3.52597,-4.69092
13.74300,-3.53846,-4.52587
13.76500,-3.62546,-4.04600
13.77700,-3.71248,-3.67628
13.79900,-3.82406,-3.04330
13.82100,-3.95651,-2.37047
13.83300,-3.90109,-2.31525
13.85500,-3.80273,-2.28598
13.86700,-3.65162,-2.34986
13.88900,-3.42187,-2.30696
13.90100,-3.37230,-2.30511
13.92300,-3.31392,-2.28846
13.94500,-3.26579,-2.27432
13.95700,-3.23464,-2.26906
13.97900,-3.16995,-2.25382
13.99100,-3.15549,-2.24502
14.01300,-3.14387,-2.23898
14.02500,-3.13930,-2.23631
14.04700,-3.11068,-2.23986
14.05900,-3.10581,-2.23500
14.08100,-3.07128,-2.19782
14.10300,-3.04035,-2.14858
14.11500,-3.01344,-2.12302
14.13700,-2.98825,-2.10227
14.14900,-3.00043,-2.08815
14.17100,-3.02178,-2.07488
14.18300,-3.04134,-2.06635
14.20500,-3.04957,-2.05415
14.22700,-3.05574,-2.05077
14.23900,-3.06748,-2.04227
14.26100,-3.06273,-2.01608
14.27300,-3.07728,-2.00364
14.29500,-3.08692,-2.00897
14.30700,-3.09595,-2.00671
14.32900,-3.07667,-1.99027
14.35100,-3.09160,-1.97136
14.36300,-3.09728,-1.97049
14.38500,-3.07872,-1.96353
14.39700,-3.06864,-1.95095
14.42400,-3.06311,-1.94211
14.43600,-3.05697,-1.94013
14.44800,-3.05577,-1.92542
14.47000,-3.07212,-1.90954
14.49200,-3.08447,-1.93657
14.50400,-3.09865,-1.93725
14.52600,-3.11322,-1.93366
14.53800,-3.12406,-1.92577
14.56000,-3.13916,-1.90905
14.57200,-3.14367,-1.90271
14.59400,-3.24065,-1.89520
14.61600,-3.28644,-1.88645
14.62800,-3.30058,-1.88547
14.65000,-3.35152,-1.88318
14.66200,-3.36574,-1.87947
14.68400,-3.37404,-1.85439
14.69600,-3.37026,-1.84517
14.71800,-3.37782,-1.83137
14.73000,-3.37985,-1.81933
14.75200,-3.39055,-1.80336
14.77400,-3.39352,-1.79471
14.78600,-3.39659,-1.78926
14.80800,-3.39162,-1.77635
14.82000,-3.39287,-1.76971
14.84200,-3.40279,-1.75579
14.85400,-3.41014,-1.75102
14.87600,-3.39465,-1.74310
14.89800,-3.38273,-1.72554
14.91000,-3.38232,-1.72196
14.93200,-3.41316,-1.68063
14.94400,-3.42675,-1.69071
14.96600,-3.48475,-1.69308
14.97800,-3.49946,-1.69649
15.00000,-3.59230,-1.68686
15.01229,-3.59567,-1.68305
15.03400,-3.59539,-1.62986
15.05600,-3.58346,-1.64146
15.06800,-3.58864,-1.63596
15.09000,-3.59356,-1.63292
15.10200,-3.59319,-1.62771
15.12400,-3.60313,-1.61622
15.13600,-3.60108,-1.61183
15.15800,-3.60244,-1.60580
15.18000,-3.60958,-1.59291
15.19200,-3.60879,-1.58767
15.21400,-3.61422,-1.58033
15.22600,-3.61919,-1.57243
15.24800,-3.62493,-1.56322
15.26000,-3.63397,-1.56166
15.28200,-3.63033,-1.55299
15.30400,-3.63077,-1.54496
15.31600,-3.63532,-1.54329
15.33800,-3.63966,-1.53287
15.35000,-3.63978,-1.52889
15.37200,-3.64047,-1.52541
15.38400,-3.64098,-1.52097
15.40600,-3.64075,-1.51013
15.41800,-3.64598,-1.50732
15.44000,-3.65167,-1.49523
15.46200,-3.66089,-1.49487
15.47400,-3.66319,-1.48834
15.49600,-3.66577,-1.48553
15.50800,-3.66769,-1.48070
15.53000,-3.66551,-1.47652
15.54200,-3.66955,-1.46940
15.56400,-3.67327,-1.46003
15.58600,-3.67870,-1.46227
15.59800,-3.67903,-1.46003
15.62000,-3.68931,-1.44993
15.63200,-3.69191,-1.44532
15.65400,-3.70094,-1.43730
15.66600,-3.70414,-1.43252
15.68800,-3.70159,-1.42750
15.71000,-3.71404,-1.41764
15.72200,-3.71627,-1.41347
15.74400,-3.71553,-1.40477
15.75600,-3.71903,-1.40449
15.77800,-3.72340,-1.40005
15.79000,-3.72733,-1.39284
15.81200,-3.72546,-1.38760
15.82400,-3.73057,-1.38812
15.84600,-3.73342,-1.38436
15.86800,-3.73256,-1.37259
15.88000,-3.73080,-1.36669
15.90200,-3.73122,-1.36051
15.91400,-3.73548,-1.35315
15.93600,-3.73751,-1.34535
15.94800,-3.73851,-1.33891
15.97000,-3.74700,-1.33134
15.99200,-3.74304,-1.33401
16.00400,-3.74737,-1.33236
16.02600,-3.74716,-1.32475
16.03800,-3.75032,-1.32215
16.06000,-3.75319,-1.30940
16.07200,-3.75615,-1.30857
16.09400,-3.76133,-1.29843
16.11600,-3.76017,-1.29947
16.12800,-3.76344,-1.29814
16.15000,-3.76381,-1.29438
16.16200,-3.76405,-1.29247
16.18400,-3.76138,-1.28806
16.19600,-3.76201,-1.28230
16.21800,-3.76013,-1.27644
16.23000,-3.76274,-1.27585
16.25200,-3.76597,-1.27502
16.27400,-3.76796,-1.27041
16.28600,-3.77068,-1.26994
16.30800,-3.76907,-1.26276
16.32000,-3.76875,-1.25771
16.34200,-3.77265,-1.25321
16.35400,-3.76865,-1.25071
16.37600,-3.77079,-1.23963
16.39800,-3.77510,-1.23368
16.41000,-3.77579,-1.23134
16.42700,-3.77964,-1.22489
16.44900,-3.78242,-1.22598
16.46100,-3.78575,-1.22417
16.48300,-3.79274,-1.21939
16.49500,-3.79405,-1.21796
16.51700,-3.79434,-1.20729
16.53900,-3.79939,-1.20256
16.55100,-3.80060,-1.19998
16.57300,-3.80454,-1.19534
16.58500,-3.80965,-1.19430
16.60700,-3.80900,-1.19070
16.61900,-3.80861,-1.18987
16.64100,-3.81267,-1.19182
16.66300,-3.81598,-1.18997
16.67500,-3.81692,-1.19086
16.69700,-3.81284,-1.18420
16.70900,-3.81448,-1.18116
16.73100,-3.81519,-1.18000
16.74300,-3.81733,-1.17886
16.76500,-3.81667,-1.17151
16.77700,-3.81610,-1.16829
16.79900,-3.82224,-1.16091
16.82100,-3.82424,-1.15649
16.83300,-3.82577,-1.15430
16.85500,-3.82970,-1.15135
16.86700,-3.83196,-1.15045
16.88900,-3.82743,-1.14911
16.90100,-3.82613,-1.14514
16.92300,-3.81235,-1.14334
16.94500,-3.81344,-1.13728
16.95700,-3.81689,-1.13452
16.97900,-3.81506,-1.13304
16.99100,-3.68900,-1.13714
17.01300,-3.23370,-1.08548
17.02500,-2.93504,-1.06104
17.04700,-2.39311,-1.05892
17.05928,-2.34670,-1.07033
17.08100,-2.30332,-1.06439
17.10300,-2.28608,-1.06062
17.11500,-2.25828,-1.05953
17.13700,-2.26503,-1.05049
17.14900,-2.28701,-1.04405
17.17100,-2.24462,-1.10387
17.18300,-2.21652,-1.10771
17.20500,-2.06734,-1.06991
17.22700,-1.94373,-1.06302
17.23900,-1.94562,-1.05703
17.26100,-1.93211,-1.05515
17.27300,-1.93455,-1.05427
17.29500,-1.97157,-1.04638
17.30700,-2.00272,-1.04972
17.32900,-2.05478,-1.04576
17.35100,-2.08272,-1.04372
17.36300,-2.09568,-1.04240
17.38500,-1.92006,-0.90032
17.39700,-1.94284,-0.93043
17.41900,-1.93398,-0.98652
17.43100,-1.92050,-1.02985
17.45300,-1.86926,-1.04667
17.46500,-1.90307,-0.94149
17.48700,-1.91530,-0.99979
17.50900,-1.89830,-0.94880
17.52100,-1.89636,-0.92187
17.54300,-1.82542,-1.01265
17.55500,-1.84122,-1.16346
17.57700,-1.88718,-1.26113
17.58900,-1.87646,-1.26695
17.61100,-1.87878,-1.11145
17.63300,-1.91069,-1.06326
17.64500,-1.93384,-1.09885
17.66700,-2.00543,-1.08022
17.67900,-2.03380,-1.04684
17.70100,-2.09931,-1.04326
17.71300,-2.13908,-1.05327
17.73500,-2.21680,-1.07345
17.75700,-2.33934,-1.03621
17.76900,-2.42301,-1.00006
17.79100,-2.68518,-1.00659
17.80300,-2.83860,-1.12251
17.82500,-3.03506,-1.96284
17.83700,-3.30556,-2.45881
17.85900,-3.93082,-4.26765
17.87100,-4.31084,-4.96524
17.89300,-4.45874,-4.04513
17.91500,-4.07402,-2.70078
17.92700,-4.06600,-2.25660
17.94900,-4.22296,-1.92509
17.96100,-4.32558,-1.60894
17.98300,-4.40895,-1.64512
17.99500,-4.29019,-2.10104
18.01700,-4.06307,-2.75639
18.03900,-3.79876,-2.67000
18.05100,-3.68398,-2.26962
18.07300,-3.56858,-1.36625
18.08500,-3.46192,-0.60780
18.10700,-3.11660,-0.04648
18.11900,-2.88580,-0.00940
18.14100,-2.46311,-0.39532
18.15328,-2.29423,-0.63369
18.17500,-1.97999,-0.47547
18.19700,-1.67643,-0.64514
18.20900,-1.59819,-0.88585
18.23100,-1.23343,-1.29100
18.24300,-0.86391,-1.56972
18.26500,0.01464,-1.03038
18.27700,0.45334,-0.79793
18.29900,1.09916,-0.69696
18.32100,1.62125,-0.76145
18.33300,1.97658,-0.44547
18.35500,2.86164,-0.15360
18.36700,3.30378,-0.11586
18.38900,4.20009,0.79429
18.40100,4.70975,1.19254
18.42800,5.18988,0.95830
18.44000,5.40609,0.66273
18.46200,5.95849,-0.07616
18.47400,6.25074,-0.57029
18.49600,6.81592,-1.36525
18.50800,7.23095,-1.21885
18.53000,7.86701,-1.34209
18.54200,8.06328,-1.03134
18.56400,8.95928,0.27593
18.58600,9.81254,0.45134
18.59800,10.20016,0.24556
18.62000,10.69058,-0.88403
18.63200,11.03330,-0.84687
18.65400,11.74598,-0.42353
18.66600,12.01554,0.04024
18.68800,12.81632,1.34765
18.70028,13.37607,1.96818
18.72200,13.68053,2.27672
18.74400,14.21213,1.90802
18.75600,14.53913,1.63853
18.77800,14.93049,2.78501
18.79000,15.32245,3.87023
18.81200,15.93822,6.25693
18.82400,16.14231,7.07260
18.84600,16.57478,8.34917
18.86800,16.94149,8.30027
18.88000,17.05330,7.33526
18.90200,16.94550,5.44061
18.91400,17.15884,4.69765
18.93600,17.77748,4.48484
18.94800,17.96882,4.62797
18.97000,18.24096,4.43965
18.99200,18.46084,3.83904
19.00400,18.56293,3.16999
19.02600,18.93403,2.35297
19.03800,19.27005,2.51655
19.06000,19.78127,2.76291
19.07200,20.12772,3.28557
19.09400,20.53852,3.73883
19.10600,20.55382,3.11899
19.12800,20.62207,1.50026
19.15000,20.85945,0.29607
19.16200,21.07143,0.29736
19.18400,21.44861,0.41160
19.19600,21.54109,0.52355
19.21800,21.62273,0.24411
19.23000,21.62432,-0.27743
19.25200,21.47679,-1.27341
19.27400,21.49885,-1.16462
19.28600,21.45444,-0.93332
19.30800,21.39429,-0.84865
19.32000,21.40070,-0.62141
19.34200,21.34906,-0.68202
19.35400,21.31152,-1.05610
19.37600,21.18036,-1.86630
19.39800,21.10203,-1.75930
19.41000,21.05103,-1.47635
19.43200,20.97598,-1.11941
19.44400,20.94344,-0.92203
19.46600,20.66459,-0.82456
19.47800,20.58411,-0.95014
19.50000,20.38006,-0.71005
19.51200,20.22882,-0.35148
19.53400,20.02672,-0.01657
19.55600,19.51106,0.81804
19.56800,19.28877,1.34692
19.59000,18.78337,1.58139
19.60200,18.44092,1.58122
19.62400,17.79536,2.00819
19.63600,17.59342,2.63085
19.65800,17.23431,3.82782
19.68000,17.00314,4.68950
19.69200,16.88851,4.73458
19.71400,16.75309,4.30825
19.72600,16.66668,4.02926
19.74800,16.61446,3.88140
19.76000,16.63436,3.98718
19.78200,16.55514,4.11835
19.80400,16.40453,4.44820
19.81600,16.28197,4.60435
19.83800,16.01368,4.98089
19.85000,15.86286,5.26868
19.87200,15.82667,6.39735
19.88400,15.69920,6.97358
19.90600,15.32146,7.70425
19.91800,15.07679,7.80086
19.94000,14.55507,7.56397
19.96200,14.07775,6.78355
19.97400,13.93044,6.77623
19.99600,13.71341,7.11523
20.00800,13.59103,7.21753
20.03000,13.35659,7.57286
20.04200,13.22825,7.79734
20.06400,13.08923,8.20470
20.08600,12.96313,8.41772
20.09800,12.98397,8.68909
20.12000,13.05684,9.33804
20.13200,13.00656,9.59949
20.15400,13.01031,10.10082
20.16600,12.94576,10.26822
20.18800,12.74408,10.28863
20.20000,12.65454,10.47631
20.22200,12.48750,10.95123
20.24400,12.19016,11.37462
20.25600,12.11699,11.71109
20.27800,12.07215,12.43106
20.29000,12.03709,12.73889
20.31200,11.84447,13.22048
20.32400,11.73245,13.44951
20.34600,11.52081,13.87538
20.36800,11.38757,14.36153
20.38000,11.23655,14.61177
20.40200,10.98869,14.80511
20.41400,10.86919,14.77598
20.43100,10.74684,15.02275
20.45300,10.65677,15.27486
20.47500,10.54531,15.64600
20.48700,10.48480,15.84144
20.50900,10.32583,16.10418
20.52100,10.25033,16.27587
20.54300,10.03018,16.50364
20.55500,9.85867,16.51687
20.57700,9.61460,16.63020
20.58900,9.47328,16.73143
20.61100,9.19529,17.00698
20.63300,9.00801,17.26041
20.64500,8.87032,17.25137
20.66700,8.62472,17.37478
20.67900,8.53730,17.56932
20.70100,8.33156,17.94115
20.71300,8.27477,18.12854
20.73500,8.23121,18.60880
20.75700,7.97139,18.89203
20.76900,7.79796,18.90364
20.79100,7.55606,19.04170
20.80300,7.41907,19.14030
20.82500,7.13566,19.37513
20.83700,6.96312,19.47585
20.85900,6.74608,19.73713
20.87100,6.56584,19.84483
20.89300,6.16645,20.03655
20.91500,5.81069,20.07609
20.92700,5.65526,20.04183
20.94900,5.16080,19.95042
20.96100,4.92103,20.00754
20.98300,4.49567,20.20328
20.99500,4.26160,20.26402
21.01700,3.83386,20.36449
21.03900,3.44224,20.38058
21.05100,3.14658,20.42238
21.07300,2.47461,20.35185
21.08500,2.27449,20.27389
21.10700,1.91785,20.23373
21.11900,1.74400,20.29907
21.14100,1.31114,20.60260
21.15300,1.08569,20.77957
21.17500,0.69238,20.89096
21.19700,0.21784,20.64087
21.20900,-0.03415,20.49007
21.23100,-0.52953,20.23753
21.24300,-0.77401,20.21918
21.26500,-1.33664,20.04406
21.27700,-1.63844,19.87473
21.29900,-2.14245,19.42310
21.32100,-2.86608,19.15803
21.33300,-3.18959,19.02776
21.35500,-3.81981,18.54271
21.36700,-4.10808,18.10694
21.38900,-4.49048,17.62227
21.40100,-4.67001,17.51345
21.42300,-4.98285,17.23622
21.43500,-5.17059,17.01792
21.45700,-5.54369,16.38785
21.47900,-5.95933,15.61350
21.49100,-6.14460,15.07842
21.51300,-6.33088,14.48154
21.52500,-6.45261,14.20690
21.54700,-6.61168,14.07874
21.55900,-6.78632,13.88020
21.58100,-7.19013,13.48511
21.60300,-7.53217,12.75525
21.61500,-7.69640,12.37691
21.63700,-7.98836,11.79824
21.64900,-8.12902,11.81413
21.67100,-8.38040,12.02478
21.68300,-8.50770,12.10234
21.70500,-8.64220,12.01180
21.72700,-8.82779,12.00883
21.73900,-8.92836,11.91638
21.76100,-9.07696,11.98427
21.77300,-9.12371,12.78322
21.79500,-9.15414,14.48825
21.80700,-9.34249,14.76021
21.82900,-9.66437,14.62668
21.84100,-9.89430,14.18885
21.86300,-8.49425,11.71817
21.88500,-7.44824,10.64976
21.89700,-7.00938,10.18724
21.91900,-6.41551,9.51270
21.93100,-6.13784,9.10762
21.95300,-5.69811,8.40306
21.96500,-5.53268,7.88261
21.98700,-5.30886,6.97050
22.00900,-5.09629,5.70437
22.02100,-5.00896,5.11395
22.04300,-4.89598,3.29240
22.05500,-4.84753,1.65514
22.07700,-4.94596,-2.22336
22.08900,-4.77009,-2.21902
22.11100,-4.52888,-2.21841
22.13300,-4.40370,-2.22582
22.14500,-4.37039,-2.22390
22.16700,-4.31958,-2.19841
22.17900,-4.24958,-2.20461
22.20100,-4.05683,-2.16090
22.21300,-3.91732,-2.15775
22.23500,-3.71195,-2.11932
22.24700,-3.59065,-2.10456
22.26900,-3.40043,-2.07305
22.29100,-3.23414,-1.98660
22.30300,-3.15861,-2.04165
22.32500,-3.08400,-1.99945
22.33700,-3.04868,-2.00719
22.35900,-2.99258,-1.99231
22.37100,-2.99496,-1.96468
22.39300,-3.08436,-1.96902
22.41500,-3.11661,-1.96950
22.43200,-3.14511,-1.96056
22.44400,-3.31373,-1.93161
22.46600,-3.38006,-1.92040
22.47800,-3.38798,-1.92102
22.50000,-3.39854,-1.93683
22.51200,-3.39585,-1.93731
22.53400,-3.40164,-1.91947
22.55600,-3.38795,-1.93833
22.56800,-3.37129,-1.92698
22.59000,-3.32722,-1.97027
22.60200,-3.31192,-1.98467
22.62400,-3.29746,-1.99751
22.63600,-3.29265,-2.00624
22.65800,-3.27814,-2.02032
22.68000,-3.27783,-2.02244
22.69200,-3.27064,-2.02139
22.71400,-3.27443,-2.02492
22.72600,-3.27856,-2.02314
22.74800,-3.26929,-1.97550
22.76000,-3.26283,-1.97873
22.78200,-3.26115,-1.97367
22.79400,-3.25781,-1.98268
22.81600,-3.24234,-1.99043
22.83800,-3.23340,-1.99567
22.85000,-3.22400,-1.99644
22.87200,-3.21487,-2.00225
22.88400,-3.21434,-2.00531
22.90600,-3.20741,-2.01133
22.91800,-3.20611,-2.01296
22.94000,-3.20589,-2.01874
22.96200,-3.20269,-2.01710
22.97400,-3.20151,-2.01816
22.99600,-3.20076,-2.02350
23.00800,-3.20126,-2.02570
23.03000,-3.20236,-2.04391
23.04200,-3.20054,-2.04232
23.06400,-3.20059,-2.04662
23.08600,-3.19136,-2.05966
23.09800,-3.18699,-2.06110
23.12000,-3.18371,-2.06245
23.13200,-3.18170,-2.06161
23.15400,-3.19179,-2.05287
23.16600,-3.19039,-2.04696
23.18800,-3.17890,-2.07549
23.20000,-3.16606,-2.09546
23.22200,-3.16203,-2.10420
23.24400,-3.15836,-2.10507
23.25600,-3.15590,-2.10506
23.27800,-3.15351,-2.10341
23.29000,-3.15420,-2.10169
23.31200,-3.14879,-2.10072
23.32400,-3.14707,-2.10068
23.34600,-3.14248,-2.10336
23.36800,-3.13471,-2.10793
23.38000,-3.12507,-2.10741
23.40200,-3.12462,-2.10908
23.41400,-3.11988,-2.10932
23.43600,-3.11832,-2.10892
23.44800,-3.11841,-2.10792
23.47000,-3.11455,-2.10666
23.49200,-3.10540,-2.11159
23.50400,-3.10609,-2.11442
23.52600,-3.10390,-2.10999
23.53800,-3.10328,-2.10980
23.56000,-3.10345,-2.11439
23.57200,-3.11123,-2.10937
23.59400,-3.10905,-2.12159
23.60600,-3.10905,-2.12838
23.62800,-3.10970,-2.13027
23.65000,-3.11318,-2.12494
23.66200,-3.11042,-2.12839
23.68400,-3.10463,-2.12811
23.69600,-3.10283,-2.12786
23.71800,-3.09840,-2.13245
23.73000,-3.09661,-2.12730
23.75200,-3.09651,-2.13015
23.77400,-3.06850,-2.15053
23.78600,-3.06343,-2.15294
23.80800,-3.06096,-2.16404
23.82000,-3.05781,-2.16564
23.84200,-3.04818,-2.16652
23.85400,-3.05310,-2.16511
23.87600,-3.04415,-2.15391
23.88828,-3.04913,-2.15086
23.91000,-3.04735,-2.14142
23.93200,-3.04296,-2.14536
23.94400,-3.03543,-2.15684
23.96600,-3.02956,-2.16228
23.97800,-3.02888,-2.16357
24.00000,-3.02132,-2.16610
24.01200,-3.02214,-2.16697
24.03400,-3.02016,-2.16876
24.05600,-3.02261,-2.16699
24.06800,-3.02157,-2.16425
24.09000,-3.01984,-2.16210
24.10200,-3.01801,-2.16161
24.12400,-3.02230,-2.15826
24.13600,-3.02173,-2.16073
24.15800,-3.01718,-2.16279
24.18000,-3.01952,-2.16441
24.19200,-3.01841,-2.16350
24.21400,-3.01070,-2.16593
24.22600,-3.01038,-2.16789
24.24800,-3.01027,-2.16949
24.26000,-3.00865,-2.17267
24.28200,-3.00749,-2.17440
24.29400,-3.00864,-2.17810
24.31600,-3.00667,-2.17933
24.33800,-3.00196,-2.17644
24.35000,-3.00073,-2.17964
24.37200,-2.99889,-2.18762
24.38400,-2.99717,-2.18816
24.40600,-2.99520,-2.19181
24.41800,-2.99300,-2.19598
24.43528,-2.99348,-2.19830
24.45700,-3.00071,-2.19834
24.47900,-2.99505,-2.19937
24.49100,-2.99481,-2.19657
24.51300,-2.99410,-2.20011
24.52500,-2.99405,-2.20168
24.54700,-2.99729,-2.20883
24.55900,-2.99584,-2.20980
24.58100,-2.99110,-2.21146
24.60300,-2.99395,-2.21667
24.61500,-2.99578,-2.21654
24.63700,-2.99224,-2.21741
24.64900,-2.99333,-2.21856
24.67100,-2.99291,-2.21727
24.68300,-2.99645,-2.21855
24.70500,-2.98167,-2.21326
24.72700,-2.97237,-2.21557
24.73900,-2.97095,-2.21738
24.76100,-3.03276,-2.21873
24.77300,-3.03401,-2.21767
24.79500,-3.07429,-2.22082
24.80700,-3.08271,-2.31489
24.82900,-3.03676,-2.84083
24.84100,-2.97474,-3.32040
24.86300,-2.83210,-4.29088
24.88500,-2.72700,-5.36148
24.89700,-2.64582,-6.01698
24.91900,-2.56014,-7.31321
24.93100,-2.59022,-7.85836
24.95300,-2.79780,-8.90102
24.96500,-3.26085,-9.56864
24.98700,-5.23734,-10.10080
25.00900,-6.19488,-10.56357
25.02100,-6.23143,-10.69301
25.04300,-6.00743,-11.53947
25.05500,-5.92828,-12.10768
25.07700,-5.74445,-12.63727
25.08900,-5.60935,-12.75920
25.11100,-5.35705,-12.80025
25.13300,-5.18900,-11.82853
25.14500,-5.13956,-11.21183
25.16700,-5.01347,-10.36530
25.17900,-4.90892,-10.16294
25.20100,-4.65848,-10.18594
25.21300,-4.45080,-10.49305
25.23500,-4.13907,-10.68345
25.24700,-3.98001,-10.92846
25.26900,-3.54163,-11.18768
25.29100,-2.90126,-11.26200
25.30300,-2.43102,-11.19398
25.32500,-1.49666,-11.15254
25.33700,-1.09686,-11.34388
25.35900,-0.48148,-11.97388
25.37100,-0.18548,-12.18718
25.39300,0.41604,-12.31711
25.41500,1.00162,-12.48309
25.42700,1.39724,-12.41544
25.44900,2.14439,-12.17049
25.46100,2.51690,-12.08118
25.48300,3.07767,-12.09503
25.49500,3.31303,-12.24721
25.51700,3.89739,-12.25487
25.52900,4.26202,-12.15109
25.55100,4.99210,-11.87666
25.57300,5.82185,-11.47656
25.58500,6.20527,-11.22973
25.60700,6.83294,-10.91936
25.61900,7.14848,-10.76052
25.64100,7.66850,-10.57787
25.65300,7.92982,-10.51655
25.67500,8.46456,-10.38170
25.69700,8.98718,-10.22596
25.70900,9.21064,-10.06884
25.73100,9.50801,-9.90953
25.74300,9.61179,-9.80015
25.76500,9.81973,-9.39748
25.77700,9.87043,-9.15619
25.79900,9.68480,-8.63314
25.82100,9.45474,-8.34883
25.83300,9.41585,-8.19388
25.85500,9.54988,-8.04673
25.86700,9.65734,-7.97604
25.88900,9.90756,-7.78820
25.90100,10.02982,-7.71550
25.92300,10.07825,-7.27282
25.93500,10.12487,-7.15852
25.95700,10.13040,-6.90354
25.97900,10.11423,-6.50395
25.99100,10.19442,-6.21500
26.01300,10.33598,-5.94968
26.02500,10.43305,-5.91367
26.04700,10.65440,-5.91467
26.05900,10.75616,-5.92528
26.08100,10.93849,-6.07266
26.10300,11.12845,-6.14455
26.11500,11.24970,-6.04842
26.13700,11.35935,-5.79565
26.14900,11.40354,-5.61382
26.17100,11.45883,-5.60179
26.18300,11.48352,-5.61188
26.20500,11.51493,-5.63919
26.21728,11.57563,-5.58894
26.23900,11.70991,-5.45096
26.26100,11.81812,-5.37818
26.27300,11.85287,-5.40771
26.29500,11.89451,-5.39960
26.30700,11.91189,-5.35390
26.32900,11.99411,-5.31864
26.34100,12.04882,-5.29738
26.36300,12.13474,-5.31564
26.38500,12.23342,-5.30765
26.39700,12.25301,-5.34661
26.41900,12.25391,-5.35517
26.43600,12.31695,-5.21208
26.44800,12.32979,-5.21017
26.47000,12.32167,-5.18697
26.48200,12.33106,-5.13117
26.50400,12.35978,-4.94220
26.52600,12.41262,-4.84525
26.53800,12.41599,-4.79916
26.56000,12.38801,-4.70355
26.57200,12.39673,-4.57825
26.59400,12.45078,-4.37112
26.60600,12.46935,-4.26549
26.62800,12.43369,-4.02078
26.65000,12.38270,-3.75051
26.66200,12.41152,-3.58933
26.68400,12.44609,-3.15192
26.69600,12.44316,-2.92214
26.71800,12.41068,-2.48204
26.73000,12.37260,-2.24832
26.75200,12.34197,-1.91636
26.77400,12.29574,-1.74821
26.78600,12.25854,-1.70743
26.80800,12.09886,-1.65207
26.82000,12.04196,-1.58948
26.84200,11.97273,-1.26826
26.85400,11.95944,-1.06247
26.87600,11.89666,-0.86269
26.88800,11.85737,-0.89462
26.91000,11.71468,-1.08936
26.93200,11.51619,-1.49311
26.94400,11.42677,-1.64086
26.96600,11.22216,-1.65980
26.97800,11.12717,-1.58952
27.00000,10.91040,-1.54316
27.01200,10.85975,-1.56156
27.03400,10.70360,-1.78988
27.05600,10.48362,-2.14896
27.06800,10.37197,-2.37695
27.09000,9.96301,-2.31620
27.10200,9.79018,-2.19736
27.12400,9.55012,-2.39248
27.13600,9.43295,-2.48572
27.15800,9.33311,-2.60092
27.18000,9.30659,-2.77132
27.19200,9.21476,-2.85538
27.21400,8.99991,-2.96879
27.22600,8.89938,-3.12135
27.24800,8.75492,-3.22351
27.26000,8.61919,-3.37680
27.28200,8.35564,-3.60877
27.29400,8.28066,-3.65008
27.31600,8.05538,-3.82039
27.33800,7.84183,-3.82979
27.35000,7.69050,-3.85071
27.37200,7.44887,-3.84560
27.38400,7.32669,-3.78971
27.40600,7.10475,-3.72726
27.41800,6.98117,-3.81974
27.44000,6.81565,-4.09348
27.46200,6.62304,-4.32856
27.47400,6.50634,-4.43366
27.49600,6.25253,-4.58731
27.50800,6.10905,-4.64771
27.53000,5.92979,-4.77437
27.54200,5.78474,-4.98157
27.56400,5.50241,-5.41205
27.57600,5.33079,-5.74558
27.59800,5.08290,-6.42582
27.62000,4.95690,-6.87400
27.63200,4.96225,-6.92880
27.65400,4.92559,-7.11087
27.66600,4.94930,-7.19304
27.68800,4.91278,-7.39346
27.71000,4.43925,-7.45898
27.72200,4.29459,-7.42534
27.74400,3.60964,-7.13542
27.75600,3.45596,-7.00971
27.77800,3.29659,-6.69151
27.79000,3.23738,-6.43558
27.81200,2.92452,-5.92342
27.82400,2.65551,-5.63767
27.84600,2.22859,-5.36843
27.86800,1.95054,-5.27343
27.88000,1.86686,-5.23208
27.90200,1.68364,-4.98261
27.91400,1.52868,-4.69820
27.93600,1.18451,-4.06339
27.94800,1.02880,-3.71416
27.97000,0.68388,-3.48082
27.99200,0.23955,-4.03281
28.00400,0.05310,-4.29427
28.02600,-0.09276,-4.40215
28.03800,-0.09766,-4.38842
28.06000,-0.14485,-4.20902
28.07200,-0.15440,-4.03160
28.09400,-0.21282,-3.51142
28.10600,-0.34362,-3.44394
28.12800,-0.55601,-3.23400
28.15000,-0.78569,-3.07028
28.16200,-0.97779,-2.97020
28.18400,-1.45901,-3.11706
28.19600,-1.63462,-3.05785
28.21800,-1.88570,-3.28537
28.23000,-1.90827,-3.29381
28.25200,-1.91837,-3.11798
28.27400,-1.89351,-2.64096
28.28600,-1.96665,-2.20875
28.30800,-2.24332,-1.73913
28.32000,-2.39362,-1.65395
28.34200,-2.57939,-1.64344
28.35400,-2.67523,-1.57456
28.37600,-2.92687,-1.50283
28.38800,-3.12191,-1.37833
28.41000,-3.59277,-1.18403
28.43700,-4.02754,-1.24149
28.44900,-4.13549,-1.32083
28.46100,-4.20238,-1.38024
28.48300,-4.16452,-1.29160
28.49500,-4.11651,-1.18691
28.51700,-4.01048,-0.41679
28.52900,-3.98246,-0.15906
28.55100,-4.24365,-0.16822
28.57300,-4.64057,-0.40384
28.58500,-4.83806,-0.79674
28.60700,-5.11285,-1.81928
28.61900,-5.17178,-2.36335
28.64100,-4.94665,-2.54567
28.65300,-4.92430,-2.89743
28.67500,-4.83977,-3.31149
28.69700,-4.53678,-3.09651
28.70900,-4.45540,-3.28177
28.73100,-4.50524,-4.09026
28.74300,-4.26577,-4.37592
28.76500,-3.95170,-4.77678
28.77700,-3.80228,-4.92007
28.79900,-3.47780,-5.27483
28.82100,-3.13287,-5.61277
28.83300,-3.03455,-5.62896
28.85500,-2.84461,-5.71171
28.86700,-2.80909,-5.66729
28.88900,-2.81234,-5.49804
28.90100,-2.83753,-5.35734
28.92300,-2.95784,-4.90861
28.93500,-2.98752,-4.73608
28.95700,-3.01026,-4.47649
28.97900,-3.10761,-4.10837
28.99100,-3.17333,-3.88278
29.01300,-3.30178,-3.45535
29.02500,-3.40651,-3.13731
29.04700,-3.51766,-2.72935
29.05900,-3.55202,-2.59736
29.08100,-3.53675,-2.49392
29.10300,-3.55374,-2.34706
29.11500,-3.59824,-2.17494
29.13700,-3.70210,-1.83225
29.14900,-3.72453,-1.63068
29.17100,-3.88110,-1.11378
29.18300,-3.90647,-0.89264
29.20500,-4.01119,-0.11341
29.21700,-1.67615,5.59465
29.23900,4.02716,11.34519
29.26100,4.40900,16.51423
29.27300,4.41068,16.58455
29.29500,3.89539,14.59835
29.30700,3.37536,13.79191
29.32900,3.32988,12.95290
29.34100,3.33000,12.60308
29.36300,2.92686,11.20774
29.38500,2.20977,8.90275
29.39700,1.81133,8.37077
29.41900,2.15267,8.76614
29.43100,2.43008,9.11093
29.45300,2.32273,9.04076
29.46500,2.18604,8.88507
29.48700,2.15972,8.80645
29.50900,2.27695,9.04153
29.52100,2.24137,9.03755
29.54300,2.19066,9.03951
29.55500,2.16619,8.61382
29.57700,1.59491,7.48865
29.58900,1.28816,6.87177
29.61100,0.96560,6.26322
29.62300,0.97544,6.30277
29.64500,1.25587,6.89574
29.66700,1.58426,7.60053
29.67900,1.69010,7.84203
29.70100,1.67521,7.83975
29.71300,1.56090,7.62719
29.73500,1.29266,7.10641
29.74700,1.19205,6.91486
29.76900,1.17115,6.91621
29.79100,1.29915,7.20786
29.80300,1.38598,7.40339
29.82500,1.48729,7.63836
29.83700,1.47779,7.63041
29.85900,1.35372,7.40423
29.87100,1.27064,7.26022
29.89300,1.18089,7.10384
29.91500,1.18611,7.14913
29.92700,1.22760,7.25403
29.94900,1.30548,7.44931
29.96100,1.31818,7.49160
29.98300,1.27448,7.42667
29.99500,1.22768,7.34394
30.01700,1.14512,7.21760
30.02900,1.12924,7.20552
30.05100,1.15164,7.28433
30.07300,1.19788,7.39734
30.08500,1.21433,7.43807
30.10700,1.20225,7.43880
30.11900,1.17844,7.39623
30.14100,1.13074,7.31353
30.15300,1.11412,7.29793
30.17500,1.12348,7.33364
30.19700,1.14523,7.40524
30.20900,1.15312,7.43433
30.23100,1.14451,7.42188
30.24300,1.12527,7.40264
30.26500,1.09891,7.36443
30.27700,1.08528,7.35165
30.29900,1.08087,7.36706
30.32100,1.09013,7.40124
30.33300,1.08488,7.41680
30.35500,1.07027,7.41944
30.36700,1.05707,7.41492
30.38900,1.03797,7.39736
30.40100,1.02646,7.39051
30.42300,1.03211,7.41205
30.44000,1.03690,7.43455
30.46200,1.02498,7.43322
30.47400,1.01427,7.42379
30.49600,1.00010,7.41282
30.50800,0.98952,7.40812
30.53000,0.98063,7.42032
30.54200,0.98062,7.43473
30.56400,0.96368,7.43645
30.57600,0.95712,7.43944
30.59800,0.94698,7.44277
30.62000,0.93625,7.43465
30.63200,0.92593,7.42766
30.65400,0.90756,7.42119
30.66600,0.90765,7.43341
30.68800,0.90558,7.46035
30.70000,0.89890,7.45658
30.72200,0.88077,7.45407
30.74400,0.87604,7.45402
30.75600,0.86692,7.44833
30.77800,0.86637,7.45626
30.79000,0.86245,7.46152
30.81200,0.84672,7.45846
30.82400,0.84315,7.46235
30.84600,0.83684,7.47048
30.86800,0.81930,7.45420
30.88000,0.81701,7.45284
30.90200,0.82084,7.46433
30.91400,0.81210,7.46187
30.93600,0.80799,7.46868
30.94800,0.80726,7.47280
30.97000,0.78440,7.44137
30.98200,0.77908,7.44217
31.00400,0.78804,7.46867
31.02600,0.77127,7.46635
31.03800,0.76620,7.45923
31.06000,0.76504,7.46640
31.07200,0.76394,7.46497
31.09400,0.75451,7.46119
31.10600,0.75513,7.46513
31.12800,0.74557,7.45399
31.15000,0.73132,7.44322
31.16200,0.73196,7.44767
31.18400,0.72701,7.44589
31.19600,0.71831,7.44307
31.21800,0.71909,7.45182
31.23000,0.71465,7.44689
31.25200,0.70543,7.43255
31.26400,0.70190,7.43145
31.28600,0.69417,7.43884
31.30800,0.69176,7.44120
31.32000,0.68702,7.43864
31.34200,0.68661,7.44015
31.35400,0.67751,7.43692
31.37600,0.66626,7.43422
31.38800,0.66402,7.43485
31.41000,0.65701,7.43416
31.43200,0.64841,7.44327
31.44400,0.64462,7.44426
31.46600,0.63622,7.44454
31.47800,0.63345,7.44202
31.50000,0.62262,7.44599
31.51200,0.62179,7.44749
31.53400,0.61557,7.44751
31.55600,0.60163,7.44438
31.56800,0.59712,7.44493
31.59000,0.58895,7.43991
31.60200,0.58576,7.44364
31.62400,0.57655,7.44127
31.63600,0.57456,7.44040
31.65800,0.57029,7.44122
31.67000,0.56842,7.43954
31.69200,0.56134,7.43197
31.71400,0.55229,7.42827
31.72600,0.55056,7.43382
31.74800,0.54306,7.42542
31.76000,0.53959,7.42538
31.78200,0.54372,7.43559
31.79400,0.53996,7.43220
31.81600,0.53503,7.43427
31.83800,0.53623,7.43340
31.85000,0.53453,7.42931
31.87200,0.52525,7.42685
31.88400,0.52504,7.42962
31.90600,0.51409,7.42313
31.91800,0.51020,7.42325
31.94000,0.51155,7.43304
31.96200,0.51211,7.42814
31.97400,0.50447,7.42742
31.99600,0.50654,7.42656
32.00800,0.49993,7.42821
32.03000,0.48510,7.42004
32.04200,0.48707,7.42651
32.06400,0.48199,7.43583
32.07600,0.48227,7.43784
32.09800,0.48121,7.43530
32.12000,0.47127,7.42020
32.13200,0.46732,7.41842
32.15400,0.46173,7.43172
32.16600,0.46121,7.43765
32.18800,0.45525,7.43009
32.20000,0.45295,7.43277
32.22200,0.44686,7.43727
32.24400,0.44064,7.42175
32.25600,0.44221,7.42132
32.27800,0.43990,7.42597
32.29000,0.43416,7.42462
32.31200,0.43626,7.43031
32.32400,0.43087,7.42987
32.34600,0.42214,7.42003
32.35828,0.41883,7.42190
32.38000,0.41444,7.41756
32.40200,0.40311,7.41457
32.41400,0.40057,7.41616
32.44100,0.39913,7.42726
32.45300,0.39498,7.42192
32.46500,0.39309,7.42032
32.48700,0.39114,7.42513
32.50900,0.38633,7.42536
32.52100,0.38614,7.43001
32.54300,0.38213,7.42500
32.55500,0.37967,7.42549
32.57700,0.37547,7.42009
32.58900,0.37246,7.41810
32.61100,0.37556,7.41801
32.62300,0.36825,7.40729
32.64500,0.36222,7.41763
32.66700,0.36315,7.42290
32.67900,0.36169,7.42004
32.70100,0.36909,7.43502
32.71300,0.36714,7.43322
32.73500,0.35586,7.42576
32.74700,0.35769,7.42782
32.76900,0.35493,7.42692
32.79100,0.34259,7.42237
32.80300,0.34330,7.42316
32.82500,0.33962,7.43184
32.83700,0.33946,7.42673
32.85900,0.32612,7.43548
32.87100,0.32691,7.43714
32.89300,0.32003,7.44173
32.90528,0.31888,7.44160
32.92700,0.32160,7.44558
32.94900,0.31498,7.43558
32.96100,0.31107,7.43493
32.98300,0.31021,7.45090
32.99500,0.31037,7.44964
33.01700,0.31497,7.45481
33.02900,0.31229,7.45533
33.05100,0.30617,7.44072
33.07300,0.30147,7.43710
33.08500,0.29757,7.43786
33.10700,0.29118,7.42819
33.11900,0.29056,7.42665
33.14100,0.07268,7.05017
33.15300,-0.07878,6.77752
33.17500,-0.16465,6.51534
33.19700,-0.12600,6.67287
33.20900,-0.02063,6.75095
33.23100,0.01021,6.81515
33.24300,-0.06342,6.67571
33.26500,-0.14498,6.51836
33.27700,-0.16613,6.47879
33.29900,-0.22669,6.37005
33.31100,-0.21242,6.40287
33.33300,-0.12837,6.56818
33.35500,-0.06825,6.68862
33.36700,0.07857,7.00723
33.38900,0.56564,8.07817
33.40100,0.54333,8.12029
33.42300,-0.08527,7.71695
33.43500,-0.30079,7.58493
33.45700,-0.66376,7.23213
33.47900,-1.11870,6.82090
33.49100,-1.40608,6.44486
33.51300,-1.68631,5.84767
33.52500,-1.74330,5.76364
33.54700,-1.92510,5.42665
33.55900,-2.06438,5.20652
33.58100,-2.25787,5.04106
33.60300,-2.50446,5.00482
33.61500,-2.75821,4.87371
33.63700,-3.43963,3.83081
33.64900,-3.59517,4.02072
33.67100,-3.82860,4.51549
33.68300,-3.67731,5.12348
33.70500,-3.42663,6.12112
33.71700,-3.30039,6.51167
33.73900,-3.20452,6.78767
33.76100,-3.04303,6.63056
33.77300,-2.95359,6.38927
33.79500,-2.98704,6.10476
33.80700,-2.92182,6.10857
33.82900,-2.60615,6.36898
33.84100,-2.35966,6.86565
33.86300,-1.95573,7.11210
33.88500,-1.62345,7.29054
33.89700,-1.45767,7.26266
33.91900,-1.10270,6.85127
33.93100,-0.84821,6.58106
33.95300,-0.32946,6.61478
33.96500,0.00198,6.89283
33.98700,0.66739,7.43894
33.99928,0.95921,7.65417
34.02100,1.44109,7.64574
34.04300,2.15631,7.99173
34.05500,2.53761,8.02236
34.07700,3.32342,8.12682
34.08900,3.78185,8.40099
34.11100,4.65650,9.17618
34.12300,5.15456,9.45892
34.14500,6.08109,9.60268
34.16700,6.94271,9.62517
34.17900,7.37463,9.63517
34.20100,8.23407,9.62326
34.21300,8.67102,9.69011
34.23500,9.49675,9.96837
34.24700,10.00116,9.77947
34.26900,10.67661,9.39597
34.29100,11.27465,9.07356
34.30300,11.54086,9.03519
34.32500,11.98496,9.22528
34.33700,12.22067,9.21562
34.35900,12.72176,9.28713
34.37100,13.02278,9.32934
34.39300,13.53489,9.17997
34.41500,14.07103,8.94045
34.42700,14.35822,8.83910
34.44400,14.84387,8.74428
34.46600,15.49107,8.67323
34.47800,15.77538,8.55558
34.50000,16.28649,8.32136
34.51200,16.62278,8.13128
34.53400,17.36394,7.90743
34.55600,18.08951,7.53077
34.56800,18.40371,7.34129
34.59000,18.91632,6.90289
34.60200,19.25531,6.79234
34.62400,19.98989,6.69178
34.63600,20.39524,6.71489
34.65800,21.10026,6.75542
34.67000,21.45973,6.67178
34.69200,22.03640,6.44817
34.71400,22.63928,6.21815
34.72600,22.99226,6.18538
34.74800,23.64847,6.04018
34.76000,24.02504,6.05420
34.78200,24.69375,6.03898
34.79400,24.97566,5.97052
34.81600,25.40642,5.84575
34.83800,25.95396,5.78014
34.85000,26.25995,5.78249
34.87200,26.80668,5.74652
34.88400,27.12791,5.65599
34.90600,27.72513,5.48902
34.91800,28.03055,5.34635
34.94000,28.36286,5.06499
34.95200,28.48214,5.08792
34.97400,28.70320,5.22014
34.99600,28.89237,5.57543
35.00800,28.94763,5.64838
35.03000,29.02647,5.82702
35.04200,29.04470,5.83354
35.06400,29.10851,5.85917
35.07600,29.14143,5.90743
35.09800,29.26145,6.16545
35.12000,29.40852,6.58675
35.13200,29.38992,6.72780
35.15400,29.37320,7.06535
35.16600,29.39711,7.22221
35.18800,29.45542,7.61934
35.20000,29.40517,7.73308
35.22200,29.34022,7.88814
35.24400,29.39568,8.45331
35.25600,29.33896,8.73284
35.27800,29.03958,8.87075
35.29000,28.92507,9.04092
35.31200,28.78471,9.41620
35.32400,28.68547,9.61626
35.34600,28.51405,10.10346
35.35800,28.43574,10.27718
35.38000,28.29186,10.64002
35.40200,28.09691,10.79379
35.41400,27.97297,10.94187
35.43600,27.68291,11.18177
35.44800,27.51595,11.21203
35.47000,27.30538,11.39085
35.48200,27.20755,11.57115
35.50400,26.99394,11.92536
35.52600,26.69279,12.06743
35.53800,26.51586,12.13003
35.56000,26.34647,12.02645
35.57200,26.26091,12.06229
35.59400,25.91141,12.13327
35.60600,25.64054,12.19453
35.62800,25.21646,12.45466
35.65000,24.76710,12.65934
35.66200,24.52776,12.71094
35.68400,24.03420,12.86059
35.69600,23.75279,12.86393
35.71800,23.26037,12.68976
35.73000,22.96409,12.52169
35.75200,22.52469,12.31455
35.76400,22.34401,12.30302
35.78600,22.04835,12.28672
35.80800,21.67196,12.18954
35.82000,21.46320,12.20425
35.84200,21.05097,12.24689
35.85400,20.78726,12.25636
35.87600,20.35542,12.39219
35.88800,20.17677,12.43599
35.91000,19.85513,12.40098
35.93200,19.51249,12.23391
35.94400,19.31594,12.12122
35.96600,18.95127,11.93109
35.97800,18.80181,11.79695
36.00000,18.56057,11.68631
36.01200,18.35617,11.61917
36.03400,17.94119,11.41456
36.04600,17.74899,11.27891
36.06800,17.51312,11.18109
36.09000,17.30982,11.08334
36.10200,17.17264,10.97389
36.12400,16.89428,10.87956
36.13600,16.69269,10.98710
36.15800,16.29246,11.32199
36.17000,16.00557,11.26702
36.19200,15.47388,11.00960
36.21400,14.91486,10.51518
36.22600,14.62921,10.26324
36.24800,14.24280,10.28914
36.26000,14.04761,10.41599
36.28200,13.62074,10.36090
36.29400,13.34058,10.20890
36.31600,12.83127,10.22199
36.33800,12.39515,10.34677
36.35000,12.15891,10.46783
36.37200,11.83726,10.58296
36.38400,11.68347,10.50032
36.40600,11.43179,10.05345
36.41800,11.29441,9.79330
36.44500,10.94038,9.18447
36.45700,10.83866,8.87699
36.47900,10.67134,8.60825
36.49100,10.51399,8.73703
36.51300,10.18379,9.11489
36.52500,10.03763,9.08030
36.54700,9.83667,8.86715
36.55900,9.74614,8.83815
36.58100,9.00095,9.08082
36.59300,8.81701,9.03620
36.61500,8.17908,9.04498
36.63700,7.53048,9.18494
36.64900,7.22422,9.06627
36.67100,6.73803,9.11015
36.68300,6.33658,9.08344
36.70500,5.94951,8.90542
36.71700,5.68034,8.88782
36.73900,5.27040,8.65995
36.76100,4.68505,8.39107
36.77300,4.48017,8.21106
36.79500,4.09558,7.87389
36.80700,3.92303,7.67100
36.82900,3.24988,6.98961
36.84100,2.85885,6.36708
36.86300,2.29149,5.43056
36.88500,1.88053,4.72323
36.89700,1.73852,4.52847
36.91900,1.77526,4.40890
36.93100,1.73652,4.10482
36.95300,1.69131,3.89619
36.96500,1.62184,4.08099
36.98700,1.51015,4.77806
36.99900,1.45763,5.29558
37.02100,1.22200,5.13728
37.04300,0.99756,4.66595
37.05500,0.88359,4.27161
37.07700,0.64567,3.90741
37.08900,0.47130,3.66437
37.11100,0.17883,2.82405
37.12300,-0.03214,1.21312
37.14500,0.37779,0.63642
37.16700,0.08070,0.45730
37.17900,0.14777,0.41239
37.20100,0.09450,0.36621
37.21300,0.03352,0.32032
37.23500,-0.03242,0.35704
37.24700,-0.06368,0.40424
37.26900,-0.09841,0.51687
37.28129,-0.13788,0.58754
37.30300,-0.26563,0.50444
37.32500,-0.52186,-0.10077
37.33700,-0.75330,-0.25630
37.35900,-1.09518,-0.11620
37.37100,-1.22099,-0.02149
37.39300,-1.48358,0.08425
37.40500,-1.65015,0.31598
37.42700,-1.86477,0.78768
37.44900,-2.05069,1.25955
37.46100,-2.12881,1.48505
37.48300,-2.37903,1.74009
37.49500,-2.59004,1.80015
37.51700,-3.27217,1.71741
37.52900,-3.89387,1.60653
37.55100,-3.76670,1.89833
37.57300,-3.81395,-1.33027
37.58500,-3.72837,-1.32378
37.60700,-3.63732,-1.33881
37.61900,-3.56700,-1.37333
37.64100,-3.48324,-1.37955
37.65300,-3.43198,-1.40649
37.67500,-3.35184,-1.50465
37.68729,-3.29390,-1.56668
37.70900,-3.22695,-1.58299
37.73100,-3.16576,-1.54993
37.74300,-3.14853,-1.50487
37.76500,-2.41810,-0.44854
37.77700,-2.49704,-0.39594
37.79900,-2.45610,-0.42616
37.81100,-2.45255,-0.43378
37.83300,-2.41357,-0.44732
37.85500,-2.39462,-0.45737
37.86700,-2.39544,-0.45572
37.88900,-2.37626,-0.45843
37.90100,-2.36614,-0.45977
37.92300,-2.35282,-0.46441
37.93500,-2.34797,-0.47095
37.95700,-2.34413,-0.47898
37.97900,-2.32745,-0.48841
37.99100,-2.32110,-0.49084
38.01300,-2.30887,-0.50197
38.02500,-2.30656,-0.50267
38.04700,-2.29940,-0.50638
38.05900,-2.29637,-0.51114
38.08100,-2.28966,-0.51408
38.09300,-2.28520,-0.51725
38.11500,-2.27738,-0.52251
38.13700,-2.26102,-0.53029
38.14900,-2.25617,-0.53060
38.17100,-2.23957,-0.53384
38.18300,-2.23490,-0.53664
38.20500,-2.21899,-0.54433
38.21700,-2.21154,-0.54463
38.23900,-2.19614,-0.55072
38.26100,-2.18761,-0.55088
38.27300,-2.18108,-0.55401
38.29500,-2.16857,-0.55897
38.30700,-2.16466,-0.56181
38.32900,-2.15771,-0.56445
38.34100,-2.14910,-0.56376
38.36300,-2.13771,-0.56849
38.38500,-2.13032,-0.56973
38.39700,-2.12686,-0.56824
38.41900,-2.12213,-0.57090
38.43100,-2.11558,-0.57157
38.44800,-2.10255,-0.57731
38.47000,-2.08926,-0.58125
38.48200,-2.08346,-0.58502
38.50400,-2.07797,-0.58891
38.52600,-2.06899,-0.59636
38.53800,-2.06213,-0.59890
38.56000,-2.04971,-0.59414
38.57200,-2.04571,-0.59991
38.59400,-2.04051,-0.60523
38.60600,-2.03379,-0.60497
38.62800,-2.02365,-0.61005
38.64000,-2.02102,-0.60877
38.66200,-2.01097,-0.61666
38.68400,-1.99795,-0.62116
38.69600,-1.99237,-0.62565
38.71800,-1.98952,-0.63322
38.73000,-1.98485,-0.63653
38.75200,-1.97387,-0.63244
38.76400,-1.96684,-0.63210
38.78600,-1.96294,-0.63611
38.80800,-1.95943,-0.62995
38.82000,-1.95473,-0.63524
38.84200,-1.94538,-0.64195
38.85400,-1.94122,-0.64637
38.87600,-1.93225,-0.64514
38.88800,-1.92847,-0.64712
38.91000,-1.91928,-0.65296
38.93200,-1.91620,-0.65716
38.94400,-1.91107,-0.65783
38.96600,-1.90584,-0.65704
38.97800,-1.89949,-0.65628
39.00000,-1.89557,-0.65900
39.01200,-1.89490,-0.66038
39.03400,-1.88491,-0.66615
39.04600,-1.88068,-0.66625
39.06800,-1.87351,-0.67032
39.09000,-1.86988,-0.66402
39.10200,-1.86613,-0.66598
39.12400,-1.85529,-0.67261
39.13600,-1.84999,-0.67110
39.15800,-1.84534,-0.66819
39.17000,-1.84144,-0.66806
39.19200,-1.83194,-0.66197
39.21400,-1.82280,-0.65414
39.22600,-1.81544,-0.65866
39.24800,-1.81199,-0.66271
39.26000,-1.81037,-0.66481
39.28200,-1.80089,-0.66725
39.29400,-1.80025,-0.66883
39.31600,-1.78760,-0.67271
39.33800,-1.78092,-0.68098
39.35000,-1.77535,-0.68355
39.37200,-1.76411,-0.67875
39.38400,-1.76246,-0.68198
39.40600,-1.76225,-0.68474
39.41800,-1.75852,-0.68984
39.44000,-1.74975,-0.69212
39.45200,-1.74631,-0.69475
39.47400,-1.73629,-0.69769
39.49600,-1.72031,-0.69976
39.50800,-1.71801,-0.70078
39.53000,-1.71518,-0.69926
39.54200,-1.71316,-0.70268
39.56400,-1.70475,-0.69376
39.57600,-1.70138,-0.69681
39.59800,-1.69278,-0.70011
39.62000,-1.68477,-0.71034
39.63200,-1.68403,-0.71291
39.65400,-1.67357,-0.71847
39.66600,-1.67269,-0.72146
39.68800,-1.67083,-0.72791
39.70000,-1.66639,-0.72797
39.72200,-1.65444,-0.73125
39.73428,-1.64964,-0.73203
39.75600,-1.64142,-0.73375
39.77800,-1.63174,-0.73813
39.79000,-1.62868,-0.74008
39.81200,-1.62387,-0.74601
39.82400,-1.61896,-0.74796
39.84600,-1.61820,-0.74473
39.85800,-1.61465,-0.74356
39.88000,-1.61058,-0.74275
39.90200,-1.60371,-0.74742
39.91400,-1.60029,-0.75005
39.93600,-1.59214,-0.74672
39.94800,-1.59013,-0.74530
39.97000,-1.58454,-0.74145
39.98200,-1.58078,-0.74365
40.00400,-1.57422,-0.74201
40.02600,-1.56884,-0.73730
40.03800,-1.56917,-0.73923
40.06000,-1.56350,-0.73955
40.07200,-1.55899,-0.74069
40.09400,-1.55626,-0.74501
40.10600,-1.55602,-0.75134
40.12800,-1.54941,-0.75163
40.14000,-1.54960,-0.75160
40.16200,-1.54858,-0.75246
40.18400,-1.54056,-0.75118
40.19600,-1.53848,-0.74989
40.21800,-1.53989,-0.75549
40.23000,-1.53721,-0.75914
40.25200,-1.53324,-0.76259
40.26400,-1.53096,-0.76492
40.28600,-1.51924,-0.76247
40.30800,-1.51064,-0.76250
40.32000,-1.50593,-0.76425
40.34200,-1.50210,-0.76463
40.35400,-1.49536,-0.76701
40.37600,-1.50176,-0.76843
40.38800,-1.49697,-0.77154
40.41000,-1.49435,-0.76643
40.43200,-1.49251,-0.76201
40.44900,-1.48236,-0.76565
40.46100,-1.48290,-0.77414
40.48300,-1.48167,-0.77629
40.49500,-1.47880,-0.77309
40.51700,-1.47115,-0.77426
40.52900,-1.46883,-0.77581
40.55100,-1.46612,-0.77897
40.57300,-1.49907,-0.71888
40.58500,-1.51647,-0.67828
40.60700,-1.55972,-0.67651
40.61900,-1.65364,-0.57820
40.64100,-1.54378,-0.75414
40.65300,-1.69188,-0.70159
40.67500,-1.93949,-0.46312
40.68700,-1.97044,-0.44082
40.70900,-1.99364,-0.40807
40.73100,-1.97516,-0.55810
40.74300,-1.96442,-0.67640
40.76500,-1.94273,-1.17993
40.77700,-1.96367,-1.52410
40.79900,-2.20084,-1.94525
40.81100,-2.27233,-2.18443
40.83300,-2.50603,-2.59696
40.85500,-3.02036,-2.84789
40.86700,-3.61565,-3.21117
40.88900,-5.38609,-3.13087
40.90100,-6.10388,-2.83359
40.92300,-5.96416,-2.12051
40.93500,-5.47353,-1.56025
40.95700,-4.64266,-0.42012
40.97900,-4.16957,0.61757
40.99100,-3.90101,1.05216
41.01300,-3.38308,1.20252
41.02500,-2.89154,1.42731
41.04700,-2.34444,1.15077
41.05900,-2.07718,1.23379
41.08100,-1.38041,2.19963
41.09300,-1.10614,2.46302
41.11500,-0.66745,2.47801
41.13700,-0.17173,2.02362
41.14900,0.29828,1.98614
41.17100,1.15959,1.84845
41.18300,1.47632,1.42533
41.20500,2.13776,0.86972
41.22700,3.11561,0.56935
41.23900,3.52424,0.20322
41.26100,4.31018,-0.73140
41.27300,4.94409,-0.82913
41.29500,6.18376,-0.08775
41.30700,6.67416,-0.25161
41.32900,7.51917,-0.46475
41.34100,8.09123,-0.33392
41.36300,9.04341,-0.67163
41.37529,9.55409,-0.75982
41.39700,10.59951,-0.54344
41.41900,11.77486,0.19703
41.43100,12.27942,0.11375
41.45300,13.08190,-0.25756
41.46500,13.55861,-0.31810
41.48700,14.41340,-0.63382
41.50900,15.48813,-0.84364
41.52100,16.21029,-0.77117
41.54300,17.62143,-0.86218
41.55500,18.30992,-1.13168
41.57700,19.55039,-1.36034
41.58900,20.24313,-1.48897
41.61100,21.68864,-1.26366
41.62300,22.39154,-1.30922
41.64500,23.65521,-1.43799
41.66700,24.78275,-1.62953
41.67900,25.31885,-1.75033
41.70100,26.20817,-1.80471
41.71300,26.67293,-1.75711
41.73500,27.45204,-1.74483
41.74700,27.80244,-1.85325
41.76900,28.56025,-2.19775
41.78100,29.08727,-2.15791
41.80300,30.00724,-2.05529
41.82500,30.87766,-2.08543
41.83700,31.32217,-1.94851
41.85900,31.90754,-1.64657
41.87100,32.23450,-1.43652
41.89300,32.77636,-1.42908
41.90500,33.15076,-1.36739
41.92700,33.48394,-1.58280
41.94900,33.89061,-1.54903
41.96100,34.05239,-1.59303
41.98300,34.66691,-1.69951
41.99500,35.12407,-1.71290
42.01700,35.83366,-1.74982
42.02900,36.14130,-1.80983
42.05100,36.81299,-1.68131
42.07300,37.57160,-1.50909
42.08500,37.97784,-1.31912
42.10700,38.82377,-1.22474
42.11900,39.27888,-1.23419
42.14100,40.04974,-1.42585
42.15300,40.48732,-1.30265
42.17500,41.28218,-1.04845
42.18700,41.67847,-0.86807
42.20900,42.32331,-0.62065
42.23100,43.04305,-0.43210
42.24300,43.33170,-0.40821
42.26500,43.72082,-0.30266
42.27700,43.93152,-0.08819
42.29900,44.18898,0.25076
42.31100,44.34409,0.32793
42.33300,44.54703,0.45805
42.35500,44.69854,0.68048
42.36700,44.75125,0.81323
42.38900,44.80693,1.17594
42.40100,44.74627,1.27597
42.42300,44.58116,1.61210
42.43500,44.51172,1.85262
42.45200,44.56931,2.11508
42.47400,44.60619,2.40332
42.49600,44.47715,2.60279
42.50800,44.46271,2.80469
42.53000,44.68017,3.39187
42.54200,44.64259,3.56671
42.56400,44.52223,3.90729
42.57600,44.50145,4.06347
42.59800,44.44874,4.16442
42.62000,44.49609,4.28920
42.63200,44.49831,4.37583
42.65400,44.75377,4.44692
42.66600,44.98870,4.51279
42.68800,45.31050,4.54162
42.70000,45.24875,4.42279
42.72200,45.46293,4.08422
42.73400,45.71875,4.32853
42.75600,46.35099,4.71986
42.77800,46.99099,4.99387
42.79000,47.31979,4.98946
42.81200,47.91069,4.78746
42.82400,48.19029,4.55334
42.84600,48.65868,4.35814
42.85800,48.90105,4.36084
42.88000,49.45174,4.43243
42.90200,50.12851,4.45008
42.91400,50.44188,4.38348
42.93600,50.77226,4.21366
42.94800,50.94677,4.13726
42.97000,51.34090,4.22722
42.98200,51.44568,4.31337
43.00400,51.69007,4.42868
43.02600,52.01383,4.57785
43.03800,52.16613,4.63300
43.06000,52.52199,4.75284
43.07200,52.67809,4.82021
43.09400,52.96255,4.96914
43.10600,53.10572,5.02964
43.12800,53.26782,5.17504
43.14000,53.39943,5.30602
43.16200,53.68938,5.50952
43.18400,53.92268,5.54836
43.19600,54.02757,5.48575
43.21800,54.22137,5.29728
43.23000,54.35220,5.21471
43.25200,54.72267,5.27233
43.26400,54.89670,5.39866
43.28600,55.15462,5.77564
43.30800,55.19377,5.76456
43.32000,55.15557,5.53358
43.34200,55.10797,5.06263
43.35400,55.18926,4.91430
43.37600,55.36719,4.66531
43.38800,55.34303,4.63704
43.41000,55.22557,4.51785
43.42200,55.15540,4.46738
43.44400,55.15376,3.96003
43.46600,55.04778,3.42996
43.47800,54.95510,3.15259
43.50000,54.85496,2.94819
43.51200,54.78473,2.92733
43.53400,54.76802,2.73798
43.54600,54.73935,2.55741
43.56800,54.63155,2.12882
43.59000,54.42293,1.84930
43.60200,54.36967,1.72152
43.62400,54.30597,1.56582
43.63600,54.29461,1.49272
43.65800,54.37286,1.12614
43.67000,54.26317,0.88291
43.69200,54.14396,0.64970
43.71400,54.07412,0.27233
43.72600,54.03690,0.01062
43.74800,53.84459,-0.22545
43.76000,53.73251,-0.38612
43.78200,53.47661,-0.60400
43.79400,53.38161,-0.69267
43.81600,53.21829,-0.98770
43.82800,53.16086,-1.18168
43.85000,53.14642,-1.55525
43.87200,52.98382,-2.01884
43.88400,52.86639,-2.22476
43.90600,52.80499,-2.54759
43.91800,52.90911,-2.67876
43.94000,53.27361,-2.76067
43.95200,53.44852,-2.74745
43.97400,53.49947,-2.86331
43.99600,53.41177,-3.31494
44.00800,53.43984,-3.55685
44.03000,53.65546,-3.99485
44.04200,53.76836,-4.19108
44.06400,53.89373,-4.51902
44.07600,53.91201,-4.83785
44.09800,53.92515,-5.73725
44.12000,53.96152,-6.74684
44.13200,54.01672,-7.22382
44.15400,54.14495,-7.96206
44.16600,54.17696,-8.30303
44.18800,54.12606,-8.92119
44.20000,54.04749,-9.38347
44.22200,53.85109,-10.22968
44.23400,53.64264,-10.63069
44.25600,53.20988,-11.09007
44.27800,52.87919,-11.54066
44.29000,52.87062,-11.73611
44.31200,52.94572,-11.82094
44.32400,52.99673,-11.84466
44.34600,52.91143,-11.83835
44.35800,52.82525,-11.83621
44.38000,52.68172,-12.02918
44.40200,52.56150,-12.34865
44.41400,52.49289,-12.49083
44.43600,52.30085,-12.65022
44.45300,52.07663,-12.82801
44.46500,51.87316,-12.88756
44.48700,51.55345,-13.15462
44.49900,51.40587,-13.24876
44.52100,51.14439,-13.60501
44.54300,50.77966,-13.71061
44.55500,50.51843,-13.79472
44.57700,49.94096,-13.93992
44.58900,49.60962,-14.09781
44.61100,49.04641,-14.23861
44.62300,48.72444,-14.40792
44.64500,48.06262,-14.68095
44.66700,47.46422,-14.84818
44.67900,47.26542,-14.88244
44.70100,46.97806,-14.94972
44.71300,46.81580,-14.99984
44.73500,46.42984,-15.03403
44.74700,46.18704,-15.06857
44.76900,45.70400,-15.33243
44.78100,45.50491,-15.41559
44.80300,45.25134,-15.56607
44.82500,44.95591,-15.70075
44.83700,44.78286,-15.69275
44.85900,44.38840,-15.59915
44.87100,44.17531,-15.62859
44.89300,43.60597,-15.91028
44.90500,43.30868,-16.09961
44.92700,42.81960,-16.43722
44.94900,42.42195,-16.75843
44.96100,42.19162,-16.91466
44.98300,41.74851,-17.07354
44.99500,41.49318,-17.27691
45.01700,41.04084,-17.61767
45.02900,40.78120,-17.77338
45.05100,40.29874,-18.09038
45.06300,40.05774,-18.21095
45.08500,39.53942,-18.48671
45.10700,38.98944,-18.73008
45.11900,38.69070,-18.89396
45.14100,38.27031,-19.13163
45.15300,38.06324,-19.22442
45.17500,37.69519,-19.40268
45.18700,37.50626,-19.44955
45.20900,37.20065,-19.44264
45.23100,36.96318,-19.33920
45.24300,36.84529,-19.19436
45.26500,36.58869,-18.88423
45.27700,36.41215,-18.77751
45.29900,35.97840,-18.93778
45.31100,35.73192,-18.96417
45.33300,35.32295,-19.04208
45.35500,34.97241,-18.86283
45.36700,34.77861,-18.77061
45.38900,34.29650,-18.76842
45.40100,33.94323,-18.81303
45.42300,33.17804,-19.22506
45.43500,32.72046,-19.61125
45.45700,32.14572,-20.19522
45.46900,31.96191,-20.18632
45.49100,31.59917,-20.01718
45.51300,31.04414,-19.94080
45.52500,30.69946,-20.00250
45.54700,30.08428,-20.23848
45.55900,29.79819,-20.23938
45.58100,29.35966,-20.36030
45.59300,29.11938,-20.29121
45.61500,28.64715,-19.91642
45.63700,28.15481,-19.47412
45.64900,27.87275,-19.22951
45.67100,27.33128,-18.85171
45.68300,26.98405,-18.71016
45.70500,26.13519,-18.50425
45.71700,25.68503,-18.40307
45.73900,24.92620,-17.77241
45.76100,24.05538,-17.10604
45.77300,23.52144,-16.67748
45.79500,22.67850,-15.92179
45.80700,22.19446,-15.53538
45.82900,21.22112,-14.93907
45.84100,20.66880,-14.80688
45.86300,19.72572,-14.50626
45.87500,19.42879,-14.16572
45.89700,18.38929,-13.07829
45.91900,17.51460,-12.35171
45.93100,17.01316,-11.98841
45.95300,15.92646,-11.64801
45.96500,15.46313,-11.59207
45.98700,14.50014,-11.71674
45.99900,13.88058,-11.50236
46.02100,12.55294,-10.75819
46.04300,11.44840,-10.14654
46.05500,10.92609,-9.93870
46.07700,9.86246,-9.84393
46.08900,9.31079,-9.67775
46.11100,8.42020,-9.33586
46.12300,7.98959,-9.08277
46.14500,7.22138,-8.61713
46.15728,6.78823,-8.41291
46.17900,6.05363,-8.22316
46.20100,5.52275,-7.85774
46.21300,5.22594,-7.85627
46.23500,4.72585,-7.86145
46.24700,4.44416,-7.90085
46.26900,3.94265,-7.80002
46.28100,3.73102,-7.68650
46.30300,3.49813,-7.41126
46.32500,3.42213,-6.85838
46.33700,3.21388,-6.76444
46.35900,3.05572,-6.62007
46.37100,2.87305,-6.71273
46.39300,2.47884,-6.87234
46.40500,2.28851,-6.90149
46.42700,2.02057,-7.15931
46.45400,1.90183,-7.80492
46.46600,1.86902,-7.81510
46.47800,1.80146,-7.68010
46.50000,1.03075,-7.08871
46.51200,0.82105,-6.97051
46.53400,0.26931,-7.00621
46.54600,-0.07055,-7.15508
46.56800,-0.45382,-7.25279
46.59000,-0.84522,-7.14256
46.60200,-0.99104,-6.88091
46.62400,-1.34943,-6.41927
46.63600,-1.61998,-6.27858
46.65800,-2.18585,-5.97024
46.67000,-2.48970,-5.66584
46.69200,-2.95684,-5.03391
46.70428,-3.14710,-4.60150
46.72600,-3.37901,-4.05464
46.74800,-3.59281,-3.40980
46.76000,-3.78109,-3.22182
46.78200,-4.13536,-3.15986
46.79400,-4.27902,-3.18648
46.81600,-4.48591,-3.32726
46.83800,-4.62907,-3.45472
46.85000,-4.66339,-3.36020
46.87200,-4.68560,-3.03449
46.88400,-4.63140,-2.65766
46.90600,-4.40826,-1.94543
46.91800,-4.42156,-2.02422
46.94000,-4.71947,-2.38253
46.95200,-4.90399,-2.67843
46.97400,-5.24209,-3.38148
46.99600,-5.61185,-3.71491
47.00800,-5.81474,-3.75712
47.03000,-6.01719,-3.53027
47.04200,-6.11020,-3.33629
47.06400,-6.21466,-2.84312
47.07600,-6.22886,-2.75445
47.09800,-6.31007,-2.85991
47.11000,-6.35674,-2.96914
47.13200,-6.46448,-3.15582
47.15400,-6.56583,-3.27648
47.16600,-6.63876,-3.28425
47.18800,-6.76609,-3.50901
47.20000,-6.84178,-3.66698
47.22200,-6.89863,-3.60240
47.23400,-6.82127,-3.06955
47.25600,-6.76417,-2.22810
47.27800,-6.92337,-1.71538
47.29000,-7.05961,-1.56367
47.31200,-7.31757,-1.57106
47.32400,-7.48418,-1.83694
47.34600,-6.26905,-1.38895
47.35800,-5.62825,-1.39486
47.38000,-5.00022,-1.42232
47.40200,-4.86768,-1.43025
47.41400,-4.83667,-1.43794
47.43600,-4.84412,-1.42801
47.44800,-4.80913,-1.41593
47.47000,-4.56539,-1.49629
47.48200,-4.41185,-1.53332
47.50400,-4.19805,-1.40743
47.51600,-4.08890,-1.38565
47.53800,-3.87799,-1.29467
47.56000,-3.64812,-1.35796
47.57200,-3.50129,-1.36246
47.59400,-3.24168,-1.39097
47.60600,-3.20196,-1.40918
47.62800,-3.13455,-1.39223
47.64000,-3.09562,-1.40112
47.66200,-3.04109,-1.42399
47.68400,-2.99159,-1.43951
47.69600,-2.97595,-1.45235
47.71800,-2.97476,-1.37843
47.73000,-2.96169,-1.37977
47.75200,-2.95400,-1.38235
47.76400,-2.93994,-1.38470
47.78600,-2.91063,-1.36271
47.80800,-2.85693,-1.38807
47.82000,-2.83317,-1.40752
47.84200,-2.77196,-1.49699
47.85400,-2.74587,-1.49870
47.87600,-2.71701,-1.46864
47.88800,-2.71281,-1.43888
47.91000,-2.70656,-1.40288
47.92200,-2.71099,-1.41624
47.94400,-2.68955,-1.43996
47.96600,-2.68205,-1.45211
47.97800,-2.65971,-1.49218
48.00000,-2.61849,-1.55885
48.01200,-2.58779,-1.68287
48.03400,-2.42560,-1.93485
48.04600,-2.32037,-2.01065
48.06800,-2.28889,-2.01453
48.09000,-2.26702,-2.04659
48.10200,-2.26840,-2.05635
48.12400,-2.27542,-2.05414
48.13600,-2.27575,-2.05915
48.15800,-2.27238,-2.07102
48.17000,-2.27516,-2.07780
48.19200,-2.24020,-2.13526
48.20400,-2.24701,-2.14263
48.22600,-2.27123,-2.13992
48.24800,-2.29184,-2.13050
48.26000,-2.28890,-2.17523
48.28200,-2.29685,-2.21298
48.29400,-2.29820,-2.22286
48.31600,-2.27589,-2.22054
48.32800,-2.28024,-2.21726
48.35000,-2.29366,-2.22245
48.37200,-2.28913,-2.22299
48.38400,-2.29271,-2.22494
48.40600,-2.28394,-2.24098
48.41800,-2.28777,-2.24700
48.44000,-2.28783,-2.26231
48.45700,-2.30256,-2.26408
48.46900,-2.30760,-2.26923
48.49100,-2.30990,-2.27464
48.51300,-2.31200,-2.28510
48.52500,-2.32712,-2.28442
48.54700,-2.34214,-2.29602
48.55900,-2.34380,-2.31201
48.58100,-2.34135,-2.32386
48.59300,-2.34411,-2.32920
48.61500,-2.34455,-2.34575
48.63700,-2.34912,-2.35441
48.64900,-2.35388,-2.36159
48.67100,-2.36952,-2.36424
48.68300,-2.37660,-2.36755
48.70500,-2.37115,-2.37512
48.71700,-2.37202,-2.38279
48.73900,-2.36757,-2.40107
48.75128,-2.36893,-2.40656
48.77300,-2.37430,-2.40934
48.79500,-2.37492,-2.40882
48.80700,-2.38136,-2.42073
48.82900,-2.38540,-2.42577
48.84100,-2.39202,-2.43134
48.86300,-2.39092,-2.45274
48.87500,-2.39731,-2.45821
48.89700,-2.40583,-2.45216
48.91900,-2.40303,-2.47352
48.93100,-2.40174,-2.47628
48.95300,-2.40031,-2.49653
48.96500,-2.40154,-2.50529
48.98700,-2.40829,-2.52545
48.99900,-2.41067,-2.53393
49.02100,-2.42450,-2.54741
49.04300,-2.42743,-2.55786
49.05500,-2.43084,-2.56293
49.07700,-2.44098,-2.56625
49.08900,-2.44252,-2.57241
49.11100,-2.45115,-2.58288
49.12300,-2.45655,-2.58526
49.14500,-2.45816,-2.60198
49.15700,-2.45820,-2.60887
49.17900,-2.45012,-2.61932
49.20100,-2.46261,-2.62601
49.21300,-2.46077,-2.63331
49.23500,-2.45871,-2.64278
49.24700,-2.46269,-2.64885
49.26900,-2.47146,-2.65456
49.28100,-2.47250,-2.66230
49.30300,-2.47794,-2.67121
49.32500,-2.47607,-2.68372
49.33700,-2.47668,-2.68783
49.35900,-2.47934,-2.69832
49.37100,-2.47629,-2.70265
49.39300,-2.48188,-2.70858
49.40500,-2.48447,-2.71650
49.42700,-2.49062,-2.71748
49.44900,-2.48974,-2.73144
49.46100,-2.49373,-2.73433
49.48300,-2.49528,-2.74230
49.49500,-2.49805,-2.74689
49.51700,-2.50714,-2.75398
49.52900,-2.51070,-2.75688
49.55100,-2.48795,-2.79013
49.56300,-2.49060,-2.79478
49.58500,-2.49058,-2.80263
49.60700,-2.49409,-2.81425
49.61900,-2.49792,-2.81750
49.64100,-2.49555,-2.82899
49.65300,-2.49760,-2.82735
49.67500,-2.49285,-2.84220
49.68700,-2.49549,-2.84792
49.70900,-2.50606,-2.86023
49.73100,-2.49242,-2.88129
49.74300,-2.50734,-2.86737
49.76500,-2.49245,-2.90222
49.77700,-2.49500,-2.89984
49.79900,-2.50555,-2.89119
49.81100,-2.50983,-2.88895
49.83300,-2.52215,-2.89016
49.84528,-2.51492,-2.89625
49.86700,-2.51219,-2.90076
49.88900,-2.52482,-2.90567
49.90100,-2.52751,-2.91217
49.92300,-2.52690,-2.90365
49.93500,-2.52930,-2.90639
49.95700,-2.52037,-2.90814
49.96900,-2.52251,-2.90630
49.99100,-2.52672,-2.91301
50.01300,-2.52783,-2.92325
50.02500,-2.53373,-2.92254
50.04700,-2.54293,-2.92760
50.05900,-2.54416,-2.93299
50.08100,-2.54992,-2.93806
50.09300,-2.55706,-2.93885
50.11500,-2.56091,-2.93026
50.13700,-2.54995,-2.92304
50.14900,-2.54920,-2.92358
50.17100,-2.55977,-2.92070
50.18300,-2.55865,-2.92271
50.20500,-2.56735,-2.92507
50.21700,-2.57129,-2.92645
50.23900,-2.57860,-2.92620
50.25100,-2.57453,-2.92347
50.27300,-2.58387,-2.92640
50.29500,-2.59026,-2.93583
50.30700,-2.59629,-2.94035
50.32900,-2.57977,-2.94224
50.34100,-2.58054,-2.94217
50.36300,-2.58444,-2.94364
50.37500,-2.58327,-2.94195
50.39700,-2.59072,-2.94651
50.41900,-2.59889,-2.96087
50.43100,-2.59723,-2.95883
50.45800,-2.60391,-2.96231
50.47000,-2.59777,-2.96678
50.48200,-2.59908,-2.96464
50.50400,-2.59002,-2.96729
50.51600,-2.59219,-2.97081
50.53800,-2.59440,-2.97557
50.56000,-2.61338,-2.96348
50.57200,-2.60730,-2.97705
50.59400,-2.59925,-2.98314
50.60600,-2.59956,-2.98242
50.62800,-2.60205,-2.98266
50.64000,-2.60512,-2.98388
50.66200,-2.60786,-2.98848
50.68400,-2.61310,-2.99475
50.69600,-2.62243,-2.99002
50.71800,-2.62441,-2.98394
50.73000,-2.61755,-2.99176
50.75200,-2.62346,-2.98585
50.76400,-2.62377,-2.98978
50.78600,-2.62184,-3.00112
50.79800,-2.62187,-3.00539
50.82000,-2.63637,-3.00811
50.84200,-2.63277,-3.01949
50.85400,-2.62855,-3.02276
50.87600,-2.63323,-3.02696
50.88800,-2.63960,-3.02477
50.91000,-2.63790,-3.03783
50.92200,-2.64069,-3.03211
50.94400,-2.64858,-3.04535
50.96600,-2.65290,-3.04691
50.97800,-2.65275,-3.04552
51.00000,-2.66124,-3.04085
51.01200,-2.66377,-3.04621
51.03400,-2.66109,-3.03340
51.04600,-2.66088,-3.03690
51.06800,-2.66034,-3.04576
51.09000,-2.66328,-3.04917
51.10200,-2.66621,-3.05424
51.12400,-2.67505,-3.06423
51.13600,-2.66943,-3.06489
51.15800,-2.66573,-3.07035
51.17000,-2.66544,-3.07538
51.19200,-2.66262,-3.08024
51.20400,-2.66686,-3.07877
51.22600,-2.66697,-3.08708
51.24800,-2.67139,-3.09763
51.26000,-2.66859,-3.10397
51.28200,-2.68190,-3.09782
51.29400,-2.68313,-3.10408
51.31600,-2.69152,-3.09068
51.32800,-2.70231,-3.08661
51.35000,-2.70421,-3.09067
51.37200,-2.70954,-3.09394
51.38400,-2.71042,-3.09291
51.40600,-2.70902,-3.09814
51.41800,-2.71021,-3.10176
51.44000,-2.70992,-3.10125
51.45200,-2.71097,-3.10510
51.47400,-2.70597,-3.11394
51.49600,-2.71175,-3.12478
51.50800,-2.71220,-3.12701
51.53000,-2.71716,-3.13417
51.54200,-2.71834,-3.13407
51.56400,-2.72319,-3.13950
51.57600,-2.72848,-3.13660
51.59800,-2.73057,-3.14014
51.61000,-2.73933,-3.13645
51.63200,-2.73255,-3.14232
51.65400,-2.73068,-3.14770
51.66600,-2.72443,-3.14893
51.68800,-2.72489,-3.15349
51.70000,-2.72304,-3.15531
51.72200,-2.72483,-3.15240
51.73400,-2.73488,-3.13775
51.75600,-2.72266,-3.15662
51.77800,-2.72945,-3.15224
51.79000,-2.73049,-3.15788
51.81200,-2.73102,-3.15749
51.82400,-2.73286,-3.15689
51.84600,-2.73617,-3.15079
51.85800,-2.73609,-3.14646
51.88000,-2.74357,-3.15054
51.89200,-2.74462,-3.15813
51.91400,-2.75037,-3.15352
51.93600,-2.74167,-3.16730
51.94800,-2.74008,-3.16854
51.97000,-2.74282,-3.16656
51.98200,-2.74636,-3.16774
52.00400,-2.74335,-3.17746
52.01600,-2.73922,-3.17703
52.03800,-2.72792,-3.17539
52.06000,-2.73217,-3.17804
52.07200,-2.72919,-3.17501
52.09400,-2.73234,-3.17366
52.10600,-2.73084,-3.17563
52.12800,-2.72979,-3.17812
52.14000,-2.73052,-3.17857
52.16200,-2.73063,-3.19112
52.18400,-2.72800,-3.18833
52.19600,-2.72877,-3.19101
52.21800,-2.73267,-3.18350
52.23000,-2.73175,-3.18771
52.25200,-2.73173,-3.18828
52.26400,-2.73411,-3.18758
52.28600,-2.73423,-3.19364
52.29800,-2.73239,-3.19610
52.32000,-2.73609,-3.20559
52.34200,-2.73540,-3.21223
52.35400,-2.73565,-3.21560
52.37600,-2.73812,-3.21722
52.38800,-2.73904,-3.21606
52.41000,-2.74040,-3.21389
52.42200,-2.74517,-3.21420
52.44400,-2.74469,-3.21679
52.46100,-2.74425,-3.22154
52.48300,-2.73937,-3.22765
52.49500,-2.73974,-3.23074
52.51700,-2.74082,-3.23404
52.52900,-2.74056,-3.23811
52.55100,-2.74469,-3.23382
52.56300,-2.75576,-3.22565
52.58500,-2.75060,-3.23815
52.60700,-2.74861,-3.23809
52.61900,-2.75036,-3.24246
52.64100,-2.74605,-3.24744
52.65300,-2.74369,-3.24792
52.67500,-2.74002,-3.24788
52.68700,-2.74148,-3.24741
52.70900,-2.74062,-3.24850
52.73100,-2.74114,-3.25591
52.74300,-2.74525,-3.25863
52.76500,-2.74014,-3.26101
52.77700,-2.74579,-3.26069
52.79900,-2.74430,-3.26155
52.81100,-2.74530,-3.26383
52.83300,-2.74711,-3.26201
52.84500,-2.74760,-3.26280
52.86700,-2.74379,-3.26409
52.88900,-2.75194,-3.25989
52.90100,-2.75543,-3.25508
52.92300,-2.73783,-3.26853
