Time,Phi (degrees),Theta (degrees)
0.00000,0.00000,0.00000
0.02200,0.09060,-0.12804
0.03400,0.16809,-0.17646
0.05600,0.26048,-0.26915
0.07800,0.31747,-0.37998
0.09000,0.38444,-0.38955
0.11200,0.49187,-0.45481
0.12400,0.51171,-0.50101
0.14600,0.53583,-0.57940
0.15800,0.54729,-0.55983
0.18000,0.58692,-0.52568
0.20200,0.57666,-0.54529
0.21400,0.59065,-0.53551
0.23600,0.59588,-0.56470
0.24800,0.59478,-0.54693
0.27000,0.63556,-0.52773
0.28200,0.66613,-0.57032
0.30400,0.65258,-0.55482
0.32600,0.64732,-0.62777
0.33800,0.66620,-0.63526
0.36000,0.63281,-0.62506
0.37200,0.62386,-0.62634
0.39400,0.59670,-0.59999
0.40600,0.61843,-0.59218
0.42800,0.65189,-0.65063
0.44000,0.64215,-0.64607
0.46200,0.67415,-0.68417
0.48400,0.61037,-0.68828
0.49600,0.57466,-0.67993
0.51800,0.59906,-0.65528
0.53000,0.62672,-0.65671
0.55200,0.66628,-0.61949
0.56400,0.67647,-0.63098
0.58600,0.69698,-0.62672
0.60800,0.69780,-0.66823
0.62000,0.72107,-0.64250
0.64200,0.77687,-0.57900
0.65400,0.76867,-0.59203
0.67600,0.73775,-0.58277
0.68800,0.74013,-0.56308
0.71000,0.74163,-0.56540
0.73200,0.73859,-0.60248
0.74900,0.73296,-0.59415
0.76100,0.71865,-0.60458
0.78300,0.69874,-0.63795
0.79500,0.67250,-0.62160
0.81700,0.69063,-0.63830
0.82900,0.68862,-0.61792
0.85100,0.67498,-0.65172
0.87300,0.67063,-0.59360
0.88500,0.66252,-0.60938
0.90700,0.69907,-0.61023
0.91900,0.70046,-0.61597
0.94100,0.67332,-0.62454
0.95300,0.65202,-0.60787
0.97500,0.62800,-0.63229
0.98700,0.63519,-0.60823
1.00900,0.66168,-0.60926
1.03100,0.67351,-0.61825
1.04300,0.67006,-0.62933
1.06500,0.69262,-0.59010
1.07700,0.69173,-0.59154
1.09900,0.65906,-0.56395
1.11100,0.64342,-0.55435
1.13300,0.63618,-0.58902
1.15500,0.65866,-0.58221
1.16700,0.63433,-0.60589
1.18900,0.62025,-0.61772
1.20100,0.62580,-0.59779
1.22300,0.63489,-0.58128
1.23500,0.64087,-0.58850
1.25700,0.66435,-0.58971
1.27900,0.62537,-0.61935
1.29100,0.63822,-0.61352
1.31300,0.63960,-0.58023
1.32500,0.64170,-0.59579
1.34700,0.66494,-0.61498
1.35900,0.68500,-0.60647
1.38100,0.68201,-0.62365
1.39300,0.67213,-0.62380
1.41500,0.66569,-0.66322
1.43700,0.63778,-0.65997
1.44900,0.63224,-0.65389
1.47100,0.63897,-0.67091
1.48300,0.62595,-0.66892
1.50500,0.63674,-0.63442
1.51700,0.63598,-0.63207
1.53900,0.62701,-0.67052
1.56100,0.64338,-0.64678
1.57300,0.61873,-0.63290
1.59500,0.63114,-0.64073
1.60700,0.62961,-0.63350
1.62900,0.63274,-0.63571
1.64100,0.63426,-0.61165
1.66300,0.62034,-0.61584
1.67500,0.61218,-0.62722
1.69700,0.65229,-0.62581
1.71900,0.65338,-0.60684
1.73100,0.64626,-0.60575
1.75300,0.65263,-0.61858
1.76500,0.65876,-0.61838
1.78700,0.62055,-0.61575
1.79900,0.61935,-0.63120
1.82100,0.63482,-0.63639
1.84300,0.49028,0.75845
1.85500,-1.52403,1.05416
1.87700,-0.94334,-0.02674
1.88900,-1.09995,0.37001
1.91100,-0.70210,-2.36939
1.92300,-0.96529,-3.02773
1.94500,-1.85702,-2.46636
1.96700,-1.58934,0.76990
1.97900,-1.46321,1.71580
2.00100,-0.15815,4.95965
2.01300,0.63513,7.24598
2.03500,2.10668,12.51354
2.04700,2.80993,14.08058
2.06900,4.07051,14.83480
2.09100,5.16121,12.69857
2.10300,5.84702,9.73193
2.12500,6.78386,4.99594
2.13700,7.47729,4.49045
2.15900,8.82851,4.92368
2.17100,9.79406,6.37916
2.19300,11.13292,7.56618
2.20500,11.76215,7.38356
2.22700,13.10007,6.29392
2.24900,14.79869,5.46546
2.26100,15.73468,5.31070
2.28300,17.73000,6.14356
2.29500,18.70079,6.21048
2.31700,20.55207,6.34015
2.32900,21.77789,6.49697
2.35100,24.51178,5.87864
2.36300,25.51056,5.56592
2.38500,27.53449,5.53693
2.40700,29.70283,5.83361
2.41900,30.69662,5.98928
2.44100,33.36643,5.36896
2.45300,34.51713,5.46477
2.47500,36.78867,4.91167
2.48700,37.92368,4.54204
2.50900,38.73562,3.83144
2.53100,40.61006,2.94768
2.54300,41.46386,2.10722
2.56500,43.00898,1.27181
2.57700,43.88668,0.85879
2.59900,45.49554,0.51099
2.61100,46.36342,0.65421
2.63300,47.87951,-0.91891
2.65500,49.38600,-1.70966
2.66700,50.21640,-1.54007
2.68900,51.70900,-1.32918
2.70100,52.42341,-1.40838
2.72300,53.67164,-1.45624
2.73500,54.57694,-1.71948
2.75200,55.78261,-2.54481
2.77400,56.98075,-3.18876
2.79600,58.44123,-3.42822
2.80800,59.21569,-3.46738
2.83000,60.68225,-3.86701
2.84200,61.34492,-4.14016
2.86400,62.57848,-4.66332
2.87600,63.28666,-4.88570
2.89800,64.59270,-5.33403
2.91000,65.23804,-5.61113
2.93200,66.38991,-6.12025
2.95400,67.45203,-6.61161
2.96600,67.95635,-6.75132
2.98800,68.86916,-7.03138
3.00000,69.39180,-7.13613
3.02200,70.30669,-7.36289
3.03400,70.83807,-7.38478
3.05600,71.58667,-7.65044
3.07800,72.29605,-7.86464
3.09000,72.61555,-7.90604
3.11200,73.20280,-7.92500
3.12400,73.43730,-7.90094
3.14600,73.71149,-7.65846
3.15800,73.83768,-7.52437
3.18000,73.96667,-7.49885
3.20200,74.12189,-7.62105
3.21400,74.26852,-7.74248
3.23600,74.61033,-7.93152
3.24800,74.77009,-8.04296
3.27000,75.06429,-8.08833
3.28200,75.18739,-8.13956
3.30400,75.25526,-8.19723
3.31600,75.28534,-8.31357
3.33800,75.40691,-8.49987
3.36000,75.56935,-8.70878
3.37200,75.62146,-8.82329
3.39400,75.61164,-9.16801
3.40600,75.57515,-9.29913
3.42800,75.66627,-9.42518
3.44000,75.72913,-9.53171
3.46200,75.77320,-9.88027
3.48400,75.76408,-10.26564
3.49600,75.79864,-10.45290
3.51800,75.93568,-10.81387
3.53000,75.99603,-10.94756
3.55200,76.00584,-11.02659
3.56400,75.99875,-11.24555
3.58600,76.04845,-11.60839
3.60800,76.12146,-11.81500
3.62000,76.09946,-11.87160
3.64200,76.00139,-11.93456
3.65400,75.91887,-12.05157
3.67600,75.72536,-12.14619
3.68800,75.64283,-12.24633
3.71000,75.49580,-12.49924
3.72200,75.46817,-12.57418
3.74400,75.48926,-12.66667
3.76600,75.54700,-12.55585
3.77800,75.53559,-12.59632
3.80000,75.35023,-12.82396
3.81200,75.22623,-12.98128
3.83400,74.99272,-13.23031
3.84600,74.92769,-13.39294
3.86800,74.72318,-13.77152
3.89000,74.39386,-14.20219
3.90200,74.17537,-14.39786
3.92400,73.82384,-14.70058
3.93600,73.63659,-14.87322
3.95800,73.33949,-15.13017
3.97000,73.16734,-15.16909
3.99200,72.93771,-15.12374
4.01400,72.78449,-15.09348
4.02600,72.63701,-15.13185
4.04800,72.19551,-15.39753
4.06000,71.97532,-15.51283
4.08200,71.71466,-15.65268
4.09400,71.60692,-15.69782
4.11600,71.43546,-15.87013
4.12800,71.28403,-15.95835
4.15000,71.03535,-16.08222
4.17200,70.86442,-16.09402
4.18400,70.76312,-16.15502
4.20600,70.44891,-16.36871
4.21800,70.23119,-16.41104
4.24000,69.92965,-16.44443
4.25200,69.80212,-16.53995
4.27400,69.60121,-16.63114
4.29600,69.37852,-16.69672
4.30800,69.23106,-16.80772
4.33000,68.98083,-17.01283
4.34200,68.93465,-17.09150
4.36400,68.92506,-17.26965
4.37600,68.98876,-17.42371
4.39800,69.09925,-17.59315
4.41029,69.07064,-17.59815
4.43200,69.01678,-17.53032
4.45400,69.05956,-17.48383
4.46600,69.16610,-17.43218
4.48800,69.47375,-17.43537
4.50000,69.64553,-17.42719
4.52200,69.94836,-17.45007
4.53400,70.06783,-17.40516
4.55600,70.24956,-17.36969
4.57800,70.44578,-17.24884
4.59000,70.56576,-17.18028
4.61200,70.83370,-17.11693
4.62400,71.00655,-17.07784
4.64600,71.30157,-17.05433
4.65800,71.43523,-17.01847
4.68000,71.73302,-16.90812
4.70200,72.11509,-16.72179
4.71400,72.35839,-16.54908
4.73600,72.86343,-16.32564
4.75300,73.19664,-16.20855
4.76500,73.45179,-16.09768
4.78700,73.86702,-15.81493
4.79900,74.07674,-15.57949
4.82100,74.38464,-15.21132
4.84300,74.66030,-14.74674
4.85500,74.85888,-14.56750
4.87700,75.11273,-14.42519
4.88900,75.27794,-14.38245
4.91100,75.65830,-13.96768
4.92300,75.89771,-13.80179
4.94500,76.17519,-13.82284
4.96700,76.35691,-14.06108
4.97900,76.55363,-14.09375
5.00100,77.03905,-14.00218
5.01300,77.32964,-13.89965
5.03500,77.74340,-13.47925
5.04700,77.87396,-13.33742
5.06900,78.10677,-13.20135
5.08100,78.28123,-13.10766
5.10300,78.72081,-12.73910
5.12500,78.99380,-12.38347
5.13700,79.08691,-12.16281
5.15900,79.25092,-11.88580
5.17100,79.28684,-11.70415
5.19300,79.24878,-11.34092
5.20500,79.18573,-11.11673
5.22700,79.07449,-10.79882
5.24900,79.34282,-10.41649
5.26100,79.46691,-10.17973
5.28300,79.62154,-9.98318
5.29500,79.63152,-9.86173
5.31700,79.81093,-9.42786
5.32900,79.86626,-9.19294
5.35100,80.09991,-8.76773
5.36300,80.18176,-8.61908
5.38500,80.41966,-8.18292
5.40700,80.64401,-7.75569
5.41900,80.75017,-7.50935
5.44100,80.87401,-7.12163
5.45300,80.90396,-6.93096
5.47500,80.97848,-6.59591
5.48700,81.05048,-6.39117
5.50900,81.13996,-6.04650
5.53100,81.28612,-5.81682
5.54300,81.31784,-5.66598
5.56500,81.46255,-5.34977
5.57700,81.48409,-5.18580
5.59900,81.60404,-4.95776
5.61100,81.64198,-4.83092
5.63300,81.71642,-4.47943
5.65500,81.82278,-4.09584
5.66700,81.88959,-3.90108
5.68900,81.85875,-3.65054
5.70100,81.93592,-3.43995
5.72300,82.20460,-2.92311
5.73500,82.32190,-2.73663
5.75700,82.37242,-2.49743
5.76900,82.42733,-2.37042
5.79100,82.57534,-2.12306
5.81300,82.61504,-1.91972
5.82500,82.70615,-1.73756
5.84700,82.82304,-1.47228
5.85900,82.88418,-1.32586
5.88100,83.02144,-1.07607
5.89300,83.06159,-1.00754
5.91500,83.18446,-0.74334
5.93700,83.33089,-0.35806
5.94900,83.43200,-0.17917
5.97100,83.50024,0.02708
5.98300,83.52391,0.15093
6.00500,83.55055,0.44412
6.01700,83.59293,0.63521
6.03900,83.67957,0.97189
6.06100,83.75752,1.32928
6.07300,83.82324,1.48105
6.09500,83.98112,1.76728
6.10700,84.02921,1.87473
6.12900,84.17250,2.25126
6.14100,84.26479,2.41617
6.16300,84.28637,2.63577
6.17500,84.30878,2.73615
6.19700,84.49918,2.89939
6.21900,84.65172,3.04860
6.23100,84.72852,3.07388
6.25300,84.83991,3.09147
6.26500,84.96163,3.12104
6.28700,85.11201,3.21110
6.29900,85.13583,3.22769
6.32100,85.11600,3.34142
6.34300,85.16187,3.50774
6.35500,85.15023,3.63908
6.37700,85.24118,3.88942
6.38900,85.23613,4.01094
6.41100,85.27163,4.32296
6.42300,85.33170,4.53347
6.44500,85.40602,4.90945
6.45700,85.43693,5.12323
6.47900,85.54144,5.44515
6.50100,85.60771,5.82361
6.51300,85.67683,6.02756
6.53500,85.61547,6.34136
6.54700,85.59834,6.45563
6.56900,85.48747,6.77214
6.58100,85.42007,6.79117
6.60300,85.18455,7.11266
6.62500,84.99259,7.40172
6.63700,85.02238,7.49413
6.65900,85.06159,7.82293
6.67100,85.10096,8.00665
6.69300,85.10493,8.20887
6.70500,84.97090,8.35050
6.72700,85.11560,8.59986
6.75400,85.20618,8.92514
6.76600,85.10219,9.07852
6.77800,85.10314,9.24241
6.80000,85.16290,9.56950
6.81200,85.06880,9.70393
6.83400,85.01262,9.99236
6.84600,85.03323,10.15360
6.86800,85.03973,10.35221
6.89000,85.17346,10.52197
6.90200,85.20917,10.61181
6.92400,85.42786,10.83729
6.93600,85.51159,10.93017
6.95800,85.46833,11.03289
6.97000,85.42063,11.12397
6.99200,85.33030,11.31033
7.01400,85.27500,11.48461
7.02600,85.29599,11.59461
7.04800,85.35667,11.87024
7.06000,85.39610,12.05241
7.08200,85.44676,12.40246
7.09400,85.42540,12.47380
7.11600,85.42544,12.37054
7.12800,85.44157,12.39725
7.15000,85.55846,12.42110
7.17200,85.64305,12.57553
7.18400,85.71847,12.66342
7.20600,85.71719,12.79137
7.21800,85.72904,12.89854
7.24000,85.82829,13.08725
7.25200,85.84320,13.16090
7.27400,85.82824,13.25879
7.29600,85.73234,13.40947
7.30800,85.76427,13.55930
7.33000,85.70486,13.79953
7.34200,85.57292,13.87708
7.36400,85.62241,14.03711
7.37600,85.56922,14.11284
7.39800,85.48765,14.36286
7.41000,85.49348,14.48176
7.43200,85.40170,14.67703
7.45400,85.31609,14.83203
7.46600,85.34254,14.96420
7.48800,85.35412,15.25381
7.50000,85.33221,15.34094
7.52200,85.31542,15.49921
7.53400,85.25633,15.54359
7.55600,85.29407,15.62676
7.57800,85.30373,15.69922
7.59000,85.12046,15.66403
7.61200,84.81238,15.60018
7.62400,84.75256,15.64485
7.64600,84.81442,15.78906
7.65800,84.88908,15.86038
7.68000,84.89140,15.93916
7.70200,85.01199,15.99887
7.71400,85.03245,16.00068
7.73600,85.17091,16.02538
7.74800,85.29720,16.06611
7.77000,85.38379,16.07490
7.78200,85.48137,16.06014
7.80400,85.44321,15.95217
7.81600,85.44186,15.90492
7.83800,85.34729,15.85080
7.86000,85.07249,15.70025
7.87200,85.03302,15.67418
7.89400,85.03320,15.68538
7.90600,85.01635,15.65460
7.92800,84.85332,15.60118
7.94000,84.84843,15.61819
7.96200,84.81832,15.63014
7.98400,84.67050,15.63015
7.99600,84.57973,15.60668
8.01800,84.52425,15.63976
8.03000,84.51978,15.68260
8.05200,84.52798,15.64544
8.06400,84.38224,15.57028
8.08600,84.29736,15.49605
8.10800,84.31499,15.46632
8.12000,84.31747,15.47382
8.14200,84.40704,15.49886
8.15400,84.41912,15.47766
8.17600,84.42896,15.46206
8.18800,84.44244,15.45086
8.21000,84.22486,15.32822
8.22200,84.11645,15.22619
8.24400,84.03258,15.12042
8.26600,84.07872,15.04955
8.27800,84.12681,15.00319
8.30000,84.21883,14.89827
8.31200,84.29299,14.84271
8.33400,84.28559,14.72017
8.34600,84.32022,14.62205
8.36800,84.38293,14.35031
8.39000,84.38052,13.96025
8.40200,84.42728,13.78396
8.42400,84.63428,13.57366
8.43600,84.70566,13.45059
8.45800,84.67863,13.15168
8.47000,84.69366,12.97207
8.49200,84.73966,12.68615
8.51400,84.80778,12.42659
8.52600,84.87852,12.29370
8.54800,85.02047,12.03321
8.56000,85.09686,11.82410
8.58200,85.19695,11.31129
8.59400,85.11266,10.97318
8.61600,85.14458,10.47530
8.62800,85.18381,10.26173
8.65000,85.21112,9.93824
8.67200,85.26409,9.66832
8.68400,85.20339,9.49574
8.70600,85.09084,8.99987
8.71800,85.04655,8.80995
8.74000,85.10894,8.64655
8.75700,85.21517,8.56892
8.76900,85.28523,8.53417
8.79100,85.44198,8.38057
8.81300,85.51487,8.06504
8.82500,85.49465,7.95786
8.84700,85.57322,7.54107
8.85900,85.59650,7.40651
8.88100,85.65350,7.06072
8.89300,85.66451,6.81234
8.91500,85.67586,6.18763
8.93700,85.60778,5.50423
8.94900,85.53925,5.15976
8.97100,85.14535,4.61781
8.98300,84.92154,4.37219
9.00500,84.53158,3.89171
9.01700,84.33224,3.64959
9.03900,84.13557,3.20724
9.05100,83.98611,2.90345
9.07300,83.81672,2.47566
9.09500,83.53209,1.96180
9.10700,83.38069,1.61706
9.12900,83.07832,1.02169
9.14100,82.91709,0.64959
9.16300,82.61873,-0.06166
9.17500,82.45414,-0.49224
9.19700,82.27733,-1.26595
9.21900,82.06909,-2.04185
9.23100,81.96725,-2.43743
9.25300,81.83188,-3.10544
9.26500,81.74657,-3.54659
9.28700,81.50076,-4.35420
9.29900,81.34129,-4.84301
9.32100,80.82571,-5.75503
9.34300,80.00567,-6.60770
9.35500,79.68511,-6.94242
9.37700,79.10926,-7.89557
9.38900,78.88535,-8.52472
9.41100,78.04585,-9.05744
9.42300,77.67525,-9.36405
9.44500,77.25183,-10.11633
9.45700,77.12049,-10.41549
9.47900,76.88422,-11.08063
9.50100,76.01629,-12.03228
9.51300,75.73611,-12.40578
9.53500,75.43159,-13.30739
9.54700,75.40063,-13.73347
9.56900,75.05811,-14.54068
9.58100,74.97988,-15.11448
9.60300,74.87244,-15.88205
9.62500,74.63300,-16.26526
9.63700,74.60651,-16.79613
9.65900,74.26784,-17.42022
9.67100,74.50391,-18.12404
9.69300,74.81796,-19.24124
9.70500,74.83966,-19.81240
9.72700,74.00574,-21.13366
9.74900,73.33170,-22.57794
9.76100,72.98392,-23.32091
9.78300,71.85590,-24.75956
9.79500,71.26006,-25.37088
9.81700,70.81505,-26.57081
9.82900,70.33979,-27.32586
9.85100,69.30092,-29.13772
9.86300,68.82236,-30.33430
9.88500,67.70210,-32.80640
9.90700,66.34997,-35.61641
9.91900,65.82648,-37.31964
9.94100,64.98921,-40.34016
9.95300,64.54982,-41.80464
9.97500,63.33838,-44.26788
9.98700,62.48112,-45.83194
10.00900,60.51373,-48.48296
10.03100,58.27106,-50.72084
10.04300,57.20118,-52.03479
10.06500,55.55442,-55.01278
10.07700,54.49303,-56.73250
10.09900,52.45202,-59.99756
10.11100,51.47950,-61.76637
10.13300,49.42237,-64.56478
10.14529,47.95108,-65.83847
10.16700,45.13138,-67.91431
10.18900,41.61485,-69.87819
10.20100,39.53428,-71.08091
10.22300,35.50907,-73.41767
10.23500,33.13417,-74.59180
10.25700,28.60142,-75.88097
10.26900,25.85677,-76.14066
10.29100,20.58826,-76.42595
10.31300,14.12835,-77.04310
10.32500,10.09594,-77.60452
10.34700,2.21758,-78.89409
10.35900,-1.01183,-79.61624
10.38100,-6.59316,-80.56117
10.39300,-9.54694,-80.90931
10.41500,-13.18394,-80.61661
10.43700,-18.71337,-81.21452
10.44900,-20.18233,-81.67527
10.47100,-21.59545,-82.08696
10.48300,-21.76149,-82.05796
10.50500,-24.04558,-82.04498
10.51700,-27.46488,-82.23373
10.53900,-32.65484,-82.43820
10.55100,-36.28975,-82.72060
10.57300,-43.33502,-83.96798
10.59500,-48.73169,-84.99100
10.60700,-55.33598,-85.75001
10.62900,-73.83085,-86.94520
10.64100,-89.35786,-87.29861
10.66300,-111.01525,-87.28609
10.67500,-122.35545,-86.92648
10.69700,-134.74506,-85.94246
10.71900,-148.53786,-84.32756
10.73100,-151.81541,-83.76954
10.75800,-157.85310,-83.17076
10.77000,-160.11789,-82.86993
10.78200,-163.32687,-82.05092
10.80400,-167.44713,-80.29836
10.81600,-168.48459,-78.86540
10.83800,-167.24165,-76.34654
10.86000,-165.59677,-74.16400
10.87200,-165.81639,-73.64923
10.89400,-166.03986,-74.03583
10.90600,-166.27989,-73.90084
10.92800,-166.99680,-72.94626
10.94000,-167.20178,-72.26247
10.96200,-167.52139,-70.73152
10.98400,-168.08662,-68.97118
10.99600,-168.43954,-68.00447
11.01800,-168.96933,-66.70948
11.03000,-169.10191,-66.06715
11.05200,-169.25288,-64.33748
11.06400,-169.47159,-63.47768
11.08600,-170.03741,-62.09469
11.09800,-170.26933,-61.30231
11.12000,-170.63280,-59.95402
11.14200,-170.96182,-58.75354
11.15400,-171.14992,-58.01010
11.17600,-171.34505,-56.88936
11.18800,-171.68159,-56.14547
11.21000,-172.26347,-55.20039
11.22200,-172.45740,-54.81862
11.24400,-172.62003,-53.95118
11.26600,-172.79738,-53.00983
11.27800,-172.91563,-52.48724
11.30000,-173.17131,-51.54734
11.31200,-173.30865,-50.94273
11.33400,-173.61279,-49.87613
11.34600,-173.76445,-49.26041
11.36800,-174.17589,-47.99342
11.39000,-174.81232,-46.72873
11.40200,-175.12820,-46.22298
11.42400,-175.64925,-45.35102
11.43600,-175.96364,-44.79187
11.45800,-176.65034,-43.43312
11.47000,-177.15350,-42.66804
11.49200,-178.14265,-41.42997
11.50400,-178.72269,-40.66973
11.52600,-179.78090,-39.23315
11.54800,178.95250,-37.48993
11.56000,177.94836,-36.46268
11.58200,176.07973,-34.39870
11.59400,174.77243,-32.02097
11.61600,172.93530,-28.20736
11.62800,172.06830,-26.14083
11.65000,170.86642,-22.64135
11.67200,170.21394,-20.84295
11.68400,170.00752,-20.82902
11.70600,170.16879,-20.98475
11.71800,170.33051,-21.78103
11.74000,171.24617,-23.46632
11.75200,171.73991,-23.96794
11.77400,172.59157,-23.94747
11.79600,173.05647,-23.09421
11.80800,173.28069,-22.10434
11.83000,173.51956,-20.30087
11.84200,173.59070,-19.42537
11.86400,173.56003,-17.15891
11.87600,173.63289,-15.70905
11.89800,173.68706,-12.76972
11.92000,173.71487,-10.31156
11.93200,173.61838,-9.17113
11.95400,173.23206,-7.26598
11.96600,173.16753,-6.47747
11.98800,173.03473,-4.47547
12.00000,172.89485,-3.27645
12.02200,172.69095,-0.26767
12.03400,172.65262,1.31928
12.05600,172.69963,3.55687
12.07800,172.85979,5.20204
12.09000,172.93938,6.04614
12.11200,173.03226,8.02089
12.12400,173.19659,8.88331
12.14600,173.40289,11.30630
12.15800,173.50967,12.48687
12.18000,173.65112,13.95694
12.19200,173.63956,14.86982
12.21400,173.67458,16.38491
12.23600,173.77762,19.14669
12.24800,173.76541,21.22849
12.27000,173.72189,25.92380
12.28200,173.70964,27.92307
12.30400,173.73938,30.26715
12.31600,173.73636,31.54610
12.33800,173.65346,33.96987
12.36000,173.46274,36.49665
12.37200,173.41173,37.91842
12.39400,173.38397,39.95810
12.40600,173.42491,41.08680
12.42800,173.50807,43.35650
12.44000,173.59305,44.07281
12.46200,173.67526,45.27575
12.48400,173.71570,46.40168
12.49600,173.70215,47.13181
12.51800,173.78841,48.02058
12.53000,173.84113,48.51171
12.55200,174.03012,49.66454
12.56400,174.19531,50.24361
12.58600,174.61542,51.22642
12.59800,174.84058,51.93729
12.62000,175.27997,53.26069
12.64200,175.76750,54.42271
12.65400,176.07571,54.80950
12.67600,176.29501,56.17828
12.68800,176.42607,56.91856
12.71000,176.73148,57.85889
12.72200,176.75131,58.51482
12.74400,176.74504,59.20961
12.76100,176.69299,59.61021
12.78300,176.80470,59.98441
12.79500,176.84239,60.51096
12.81700,177.15404,61.12490
12.82900,177.31157,61.26860
12.85100,177.31013,61.18278
12.86300,177.24391,61.16777
12.88500,177.20026,60.75634
12.90700,177.25723,60.31910
12.91900,177.18388,60.09628
12.94100,177.01918,59.55857
12.95300,176.95161,59.35522
12.97500,176.93092,59.08279
12.98700,176.90353,59.01824
13.00900,176.83514,59.16883
13.03100,176.79799,59.04620
13.04300,176.76123,59.04703
13.06500,176.59592,59.08990
13.07700,176.61678,58.68079
13.09900,176.45285,57.69174
13.11100,176.26248,57.19341
13.13300,175.80170,56.16206
13.15500,175.39598,54.77653
13.16700,175.12561,53.68641
13.18900,174.63872,51.04664
13.20100,174.47330,49.09563
13.22300,174.15475,44.88672
13.23500,173.88264,42.83630
13.25700,173.58124,39.53469
13.26900,173.41415,38.04140
13.29100,173.28232,35.43253
13.31300,172.83821,31.48987
13.32500,172.57919,28.92421
13.34700,172.09741,23.75761
13.35900,171.76814,20.76678
13.38100,171.14235,16.55943
13.39300,170.89629,14.58466
13.41500,170.51826,10.68628
13.43700,170.29224,5.72885
13.44900,170.11946,3.32326
13.47100,169.64595,-0.52367
13.48300,169.14493,-3.53750
13.50500,168.66461,-6.94439
13.51700,168.35316,-8.98609
13.53900,167.67479,-12.57171
13.55100,167.39699,-13.94384
13.57300,167.02588,-16.09622
13.59500,166.74149,-18.41383
13.60700,166.52464,-19.32986
13.62900,166.14264,-21.43087
13.64100,165.98187,-22.53611
13.66300,165.64404,-24.97751
13.67500,165.50714,-26.18431
13.69700,165.22334,-27.37017
13.71900,165.07831,-28.77943
13.73100,164.95621,-29.50266
13.75300,164.70610,-31.48866
13.76500,164.46980,-32.85535
13.78700,163.79431,-35.22596
13.79900,163.46251,-36.48575
13.82100,163.26602,-37.37817
13.83329,163.23428,-37.59035
13.85500,163.24727,-38.54904
13.87700,163.11189,-39.90858
13.88900,162.94475,-40.98393
13.91100,162.78734,-42.31154
13.92300,162.62909,-42.87282
13.94500,162.56377,-43.70315
13.95700,162.68652,-43.61649
13.97900,162.91495,-43.83536
14.00100,163.01630,-44.07806
14.01300,163.04033,-44.58974
14.03500,163.13264,-45.69069
14.04700,163.19760,-46.38817
14.06900,163.46957,-47.41548
14.08100,163.65907,-47.73148
14.10300,164.08774,-48.11689
14.12500,164.62875,-48.55598
14.13700,164.90414,-48.80547
14.15900,165.41919,-49.19151
14.17100,165.77110,-49.34069
14.19300,166.55779,-49.28387
14.20500,167.04173,-49.17310
14.22700,167.85231,-48.66658
14.23900,168.30089,-48.47944
14.26100,169.09505,-48.17041
14.28300,169.69946,-48.19678
14.29500,170.06294,-48.11613
14.31700,170.67401,-47.74238
14.32900,170.99387,-47.56413
14.35100,171.59399,-47.23982
14.36300,171.88092,-47.14070
14.38500,172.35056,-46.87962
14.40700,172.94395,-46.35889
14.41900,173.31688,-46.06949
14.44100,174.22086,-45.48518
14.45300,174.73746,-45.13853
14.47500,175.59753,-44.24401
14.48700,175.99513,-43.61034
14.50900,176.67273,-42.41090
14.53100,177.22600,-41.49655
14.54300,177.44362,-41.11853
14.56500,177.52820,-40.27998
14.57700,177.49492,-39.63346
14.59900,177.31477,-39.00287
14.61100,177.10754,-38.57594
14.63300,176.62036,-37.82020
14.64500,176.28101,-37.32279
14.66700,175.62466,-36.29397
14.68900,174.93739,-35.58372
14.70100,174.59590,-35.25020
14.72300,173.95784,-34.34415
14.73500,173.65855,-34.00866
14.76200,172.93440,-33.32104
14.77400,172.62143,-33.02203
14.78600,172.25620,-32.82461
14.80800,171.55804,-32.46497
14.83000,170.92126,-32.03572
14.84200,170.54749,-31.63237
14.86400,169.92416,-31.17559
14.87600,169.53174,-30.82488
14.89800,168.79814,-30.27558
14.91000,168.42397,-30.03019
14.93200,167.74301,-29.54026
14.95400,167.04858,-29.01844
14.96600,166.68338,-28.73177
14.98800,165.96223,-28.07793
15.00000,165.56221,-27.77180
15.02200,164.78448,-27.18430
15.03400,164.32968,-26.87353
15.05600,163.47086,-26.44904
15.07800,162.61169,-26.19202
15.09000,162.17223,-26.11576
15.11200,161.36496,-25.96935
15.12400,160.94009,-25.76559
15.14600,160.18330,-25.39789
15.15800,159.77487,-25.15997
15.18000,158.99187,-24.88537
15.19200,158.60564,-24.81728
15.21400,157.94331,-24.53161
15.23600,157.20450,-24.42136
15.24800,156.81805,-24.36294
15.27000,156.15558,-24.15715
15.28200,155.80025,-24.04861
15.30400,155.13181,-23.90589
15.31600,154.76407,-23.71879
15.33800,154.08061,-23.64269
15.36000,153.32628,-23.73041
15.37200,152.90526,-23.70334
15.39400,152.15221,-23.64398
15.40600,151.74908,-23.63040
15.42800,151.07393,-23.55354
15.44000,150.75951,-23.55776
15.46200,150.13383,-23.51511
15.48400,149.57982,-23.40556
15.49600,149.24785,-23.23433
15.51800,148.56773,-23.13871
15.53000,148.20937,-23.10717
15.55200,147.52893,-23.00946
15.56400,147.26570,-22.84235
15.58600,146.91757,-22.41798
15.59800,146.73383,-22.22947
15.62000,146.44681,-21.99614
15.64200,146.21364,-21.77978
15.65400,146.12253,-21.71904
15.67600,145.98718,-21.39665
15.68800,145.97772,-21.19592
15.71000,146.02164,-20.96239
15.72200,146.09100,-20.89260
15.74400,146.19644,-20.67148
15.76600,146.39218,-20.53709
15.77800,146.51746,-20.50376
15.80000,146.83382,-20.58191
15.81200,147.02731,-20.58202
15.83400,147.47806,-20.50254
15.84600,147.70891,-20.43713
15.86800,148.21526,-20.43614
15.88000,148.49913,-20.48037
15.90200,149.06371,-20.49691
15.92400,149.60867,-20.48613
15.93600,149.92844,-20.58756
15.95800,150.49620,-20.85531
15.97000,150.83429,-20.97546
15.99200,151.35347,-20.85334
16.01400,151.90460,-20.97681
16.02600,152.21423,-21.13295
16.04800,152.69882,-21.49855
16.06000,152.94290,-21.57888
16.08200,153.43797,-21.81725
16.09400,153.67664,-21.98414
16.11600,154.20897,-22.37575
16.12800,154.50029,-22.42092
16.15000,155.04222,-22.72539
16.17200,155.57971,-23.17425
16.18400,155.90080,-23.41691
16.20600,156.44383,-23.61728
16.21800,156.74025,-23.87973
16.24000,157.22183,-24.38630
16.25200,157.48691,-24.55595
16.27400,157.90385,-24.84115
16.28600,158.06694,-24.97461
16.30800,158.26123,-25.38959
16.33000,158.41469,-25.81399
16.34200,158.51775,-25.95427
16.36400,158.76683,-25.93055
16.37600,158.93617,-25.96973
16.39800,159.22002,-26.12000
16.42000,159.47586,-26.53931
16.43200,159.55399,-26.67546
16.45400,159.68428,-27.04868
16.46600,159.78972,-27.21609
16.48800,160.05859,-27.46568
16.50000,160.21515,-27.43841
16.52200,160.49521,-27.70374
16.53400,160.63173,-27.89834
16.55600,160.79993,-28.02291
16.57800,161.00749,-28.13484
16.59000,161.09193,-28.14054
16.61200,161.20830,-28.38073
16.62400,161.24585,-28.52122
16.64600,161.29639,-28.98509
16.65800,161.35439,-29.06030
16.68000,161.51259,-28.96027
16.69200,161.57693,-28.98294
16.71400,161.65984,-29.29131
16.73600,161.77023,-29.83047
16.74800,161.80675,-29.90407
16.76500,161.93657,-30.01094
16.78700,162.15149,-30.27328
16.79900,162.32262,-30.33425
16.82100,162.67889,-30.30432
16.83300,162.79205,-30.37865
16.85500,162.91447,-30.84173
16.87700,163.09497,-31.29685
16.88900,163.16743,-31.67356
16.91100,163.33862,-31.91726
16.92300,163.50038,-31.97317
16.94500,163.81837,-32.14515
16.95700,163.99924,-32.30898
16.97900,164.25748,-32.65979
17.00100,164.48611,-32.83223
17.01300,164.63208,-32.93304
17.03500,164.91747,-33.33908
17.04700,165.08276,-33.72359
17.06900,165.38190,-34.56532
17.08100,165.54504,-34.86029
17.10300,165.84169,-35.46855
17.12500,166.09412,-36.03264
17.13700,166.23335,-36.38728
17.15900,166.32253,-37.34002
17.17100,166.37401,-37.71413
17.19300,166.33664,-38.35241
17.20500,166.27528,-38.60168
17.22700,166.21014,-39.24656
17.23900,166.26135,-39.59239
17.26100,166.41090,-40.15615
17.28300,166.53838,-40.77619
17.29500,166.63699,-41.05236
17.31700,166.85934,-41.54250
17.32900,167.06128,-41.83838
17.35100,167.52487,-42.49024
17.36300,167.82803,-42.69847
17.38500,168.49591,-42.91056
17.40700,169.28059,-42.92638
17.41900,169.63254,-42.94783
17.44100,170.16765,-43.58210
17.45300,170.61125,-44.16438
17.47500,171.13669,-44.80841
17.48700,171.37874,-45.03663
17.50900,171.85457,-45.55886
17.53100,172.28825,-46.04768
17.54300,172.54428,-46.37243
17.56500,173.04526,-47.00222
17.57700,173.29659,-47.25748
17.59900,173.77725,-47.68290
17.61100,174.05345,-47.90458
17.63300,174.53618,-48.34067
17.64500,174.80351,-48.60287
17.66700,175.26628,-49.08712
17.68900,175.72217,-49.49448
17.70100,175.98012,-49.71891
17.72300,176.40663,-50.11414
17.73500,176.67897,-50.33306
17.75700,177.08717,-50.57915
17.76900,177.26791,-50.77887
17.79100,177.52184,-51.15270
17.81300,177.59261,-51.32425
17.82500,177.55251,-51.47881
17.84700,177.34158,-51.54125
17.85900,177.15331,-51.56993
17.88100,176.67447,-51.69328
17.89300,176.32677,-51.83768
17.91500,175.58679,-52.14466
17.92700,175.15338,-52.25605
17.94900,174.38792,-52.43484
17.97100,173.67258,-52.53481
17.98300,173.34344,-52.58781
18.00500,172.80724,-52.67891
18.01700,172.57210,-52.71535
18.03900,172.22623,-52.32002
18.05100,172.19403,-52.29342
18.07300,171.84570,-52.28756
18.09500,171.43382,-52.19105
18.10700,171.17981,-51.99260
18.12900,170.60959,-51.59273
18.14100,170.19693,-51.56527
18.16300,169.40361,-51.74145
18.17500,168.84209,-51.87915
18.19700,167.76743,-52.21305
18.21900,166.78093,-52.76591
18.23100,166.34038,-53.07812
18.25300,165.57765,-53.47547
18.26500,165.12949,-53.73645
18.28700,164.23938,-54.22150
18.29900,163.65662,-54.59271
18.32100,162.56279,-55.19786
18.33300,162.02472,-55.54063
18.35500,161.16443,-56.00622
18.37700,160.23329,-56.38250
18.38900,159.76419,-56.51117
18.41100,159.09102,-56.49071
18.42300,158.62270,-56.68319
18.44500,157.68806,-57.16652
18.45700,157.17549,-57.41288
18.47900,156.74718,-57.46490
18.50100,156.19246,-57.52462
18.51300,155.92113,-57.74485
18.53500,154.97188,-58.32000
18.54700,154.55658,-58.47644
18.56900,153.93350,-58.74610
18.58100,153.47569,-59.08084
18.60300,151.96463,-60.19801
18.62500,149.30023,-61.86401
18.63700,147.47226,-62.73201
18.65900,145.31898,-64.14922
18.67100,145.01585,-64.61294
18.69300,144.02017,-65.10225
18.70500,143.15666,-65.28541
18.72700,141.26440,-65.63866
18.73900,140.73480,-65.73970
18.76600,140.34430,-65.91180
18.77800,139.89796,-66.16407
18.80000,138.91463,-66.61576
18.81200,138.09221,-66.83790
18.83400,136.85832,-67.18971
18.84600,136.41856,-67.35630
18.86800,135.70491,-67.73524
18.88000,135.23555,-67.97681
18.90200,134.04185,-68.25783
18.92400,132.84236,-68.49642
18.93600,132.13815,-68.65274
18.95800,131.24759,-68.81877
18.97000,130.97197,-68.86590
18.99200,130.62724,-68.90091
19.00400,130.16109,-68.95097
19.02600,128.68799,-69.13858
19.04800,127.02864,-69.37535
19.06000,126.65947,-69.41617
19.08200,126.54770,-69.45614
19.09400,127.04330,-69.41056
19.11600,128.06754,-69.22250
19.12800,128.27814,-69.16178
19.15000,127.72810,-69.32633
19.17200,128.06102,-69.29465
19.18400,129.63004,-69.07888
19.20600,134.86560,-68.29154
19.21800,136.68846,-68.25732
19.24000,140.85281,-67.65790
19.25200,142.53525,-67.35138
19.27400,143.63757,-67.57774
19.29600,143.86684,-67.66978
19.30800,144.30948,-67.64902
19.33000,145.73001,-67.19033
19.34200,146.45787,-66.86786
19.36400,146.35495,-66.69315
19.37600,146.53453,-66.62100
19.39800,146.70026,-66.71402
19.41000,146.85991,-66.65971
19.43200,147.43698,-66.48212
19.45400,148.47708,-66.35030
19.46600,149.01341,-66.36697
19.48800,149.73955,-66.38369
19.50000,150.04868,-66.45351
19.52200,150.25034,-66.66850
19.53400,149.87811,-66.89541
19.55600,149.65479,-67.13587
19.56829,149.22171,-67.45668
19.59000,148.67352,-67.90533
19.61200,148.09920,-68.31252
19.62400,147.19223,-68.76019
19.64600,145.66364,-69.43604
19.65800,144.87657,-69.76554
19.68000,144.13399,-69.95057
19.70200,143.27570,-70.03106
19.71400,141.92194,-70.36469
19.73600,138.95705,-71.21451
19.74800,137.37143,-71.55119
19.77000,135.84637,-71.59032
19.78200,135.02269,-71.65347
19.80400,133.58095,-71.58664
19.81600,132.29099,-71.58484
19.83800,130.47757,-71.56055
19.86000,130.29880,-71.48949
19.87200,130.47362,-71.56505
19.89400,130.84395,-71.75772
19.90600,131.01834,-71.86604
19.92800,131.03049,-72.00575
19.94000,130.54350,-72.03017
19.96200,129.05814,-72.05244
19.97400,128.68732,-72.11034
19.99600,128.79362,-72.27229
20.01800,129.25491,-72.36515
20.03000,129.24335,-72.36252
20.05200,129.05533,-72.21212
20.06400,128.81088,-72.13993
20.08600,128.32587,-72.04833
20.09800,128.29802,-71.96742
20.12000,128.07690,-71.77661
20.14200,127.69829,-71.73668
20.15400,127.88083,-71.72295
20.17600,128.89325,-71.60541
20.18800,129.23407,-71.54476
20.21000,129.64769,-71.40172
20.22200,129.87582,-71.33375
20.24400,130.57938,-71.24162
20.26600,131.00887,-71.12837
20.27800,130.88103,-71.14967
20.30000,129.98409,-71.33584
20.31200,129.62433,-71.43362
20.33400,128.69583,-71.59850
20.34600,128.31476,-71.63753
20.36800,127.29155,-71.71711
20.38000,126.82317,-71.70899
20.40200,126.04954,-71.70347
20.42400,125.72595,-71.83233
20.43600,126.04261,-71.88593
20.45800,126.96698,-71.89561
20.47000,127.27211,-71.91356
20.49200,127.40153,-71.98054
20.50400,127.81377,-71.97804
20.52600,128.48993,-72.00327
20.54800,129.18613,-72.05184
20.56000,129.52654,-72.14071
20.58200,130.16449,-72.26817
20.59400,130.31664,-72.32894
20.61600,129.85982,-72.35546
20.62800,129.46791,-72.34940
20.65000,129.02991,-72.37660
20.67200,128.30246,-72.56733
20.68400,128.25429,-72.64742
20.70600,128.70331,-72.78000
20.71800,129.10352,-72.84219
20.74000,129.42545,-73.01297
20.75200,129.46675,-73.11008
20.76900,129.94188,-73.23426
20.79100,130.25462,-73.42090
20.81300,130.28151,-73.56580
20.82500,130.16510,-73.64349
20.84700,130.12738,-73.74456
20.85900,130.21170,-73.77734
20.88100,130.54333,-73.84208
20.89300,130.82552,-73.82889
20.91500,130.69136,-73.81987
20.92700,130.49307,-73.79817
20.94900,130.30617,-73.76697
20.97100,130.59225,-73.74207
20.98300,130.77794,-73.77183
21.00500,130.80595,-73.69640
21.01700,130.75331,-73.64021
21.03900,130.76756,-73.69414
21.05100,130.78246,-73.71052
21.07300,130.88168,-73.69576
21.09500,131.07544,-73.68842
21.10700,131.03557,-73.70768
21.12900,130.55048,-73.70218
21.14100,130.63591,-73.63721
21.16300,130.48698,-73.58368
21.17500,130.29459,-73.58300
21.19700,129.72009,-73.63265
21.21900,129.70549,-73.63166
21.23100,129.75340,-73.62354
21.25300,129.73053,-73.59261
21.26500,129.51817,-73.57619
21.28700,129.33806,-73.59219
21.29900,129.51949,-73.54224
21.32100,129.32843,-73.44962
21.33300,129.05573,-73.40887
21.35500,128.46042,-73.41888
21.37700,128.33458,-73.47711
21.38900,128.49780,-73.51387
21.41100,128.93556,-73.71755
21.42300,129.50302,-73.76648
21.44500,130.01663,-73.83501
21.45700,129.74278,-73.86804
21.47900,128.54807,-73.95628
21.50100,127.62498,-74.06161
21.51300,127.53673,-74.08927
21.53500,127.62872,-74.11176
21.54700,127.51055,-74.17899
21.56900,127.40565,-74.36686
21.58100,127.23711,-74.52718
21.60300,126.90637,-74.86192
21.61500,126.83283,-75.04829
21.63700,127.00394,-75.40893
21.65900,127.33717,-75.76460
21.67100,127.56434,-75.91414
21.69300,127.87652,-76.25577
21.70500,127.99513,-76.48410
21.72700,127.18504,-76.95197
21.74900,126.78750,-77.21613
21.76100,126.21021,-77.30437
21.78300,125.49384,-77.34184
21.79500,124.95892,-77.33289
21.81700,123.54467,-77.31499
21.82900,122.87399,-77.28241
21.85100,122.21358,-77.20110
21.86300,122.02936,-77.16502
21.88500,121.50620,-77.16862
21.90700,121.36825,-77.18206
21.91900,121.41240,-77.20758
21.94100,121.28984,-77.20741
21.95300,121.11494,-77.18176
21.97500,121.12328,-77.19580
21.98700,120.68500,-77.19720
22.00900,118.82387,-77.20420
22.02100,118.15970,-77.14190
22.04300,117.27409,-77.08301
22.06500,116.09222,-77.13455
22.07700,115.45449,-77.16039
22.09900,115.39977,-77.08326
22.11100,116.43352,-77.13999
22.13300,113.85792,-77.40333
22.14500,112.60972,-77.59178
22.16700,111.80859,-77.83462
22.18900,111.54233,-77.82129
22.20100,111.24835,-77.81601
22.22300,111.26193,-77.79515
22.23500,111.18750,-77.83792
22.25700,111.19753,-77.88290
22.26900,111.36668,-77.83169
22.29100,111.69073,-77.65082
22.31300,110.77473,-77.57396
22.32500,110.02063,-77.54707
22.34700,109.22668,-77.48637
22.35900,109.05235,-77.45234
22.38100,108.70237,-77.34623
22.39300,108.65428,-77.28721
22.41500,108.29461,-77.13458
22.42700,107.98194,-77.04707
22.44900,107.77459,-76.88558
22.47100,107.36521,-76.73483
22.48300,107.13906,-76.67090
22.50500,106.34058,-76.54643
22.51700,105.94919,-76.48378
22.53900,105.53397,-76.41613
22.55100,105.10246,-76.38858
22.57300,104.64378,-76.31374
22.59500,104.12605,-76.25639
22.60700,103.75496,-76.26370
22.62900,103.47636,-76.33260
22.64100,103.36170,-76.33915
22.66300,103.15327,-76.31556
22.67500,102.78048,-76.29415
22.69700,102.29863,-76.24084
22.70928,102.39556,-76.19804
22.73100,102.45238,-76.20199
22.75300,102.19942,-76.23178
22.77000,102.35714,-76.25944
22.78200,102.46762,-76.28846
22.80400,102.61368,-76.40038
22.81600,102.59755,-76.47310
22.83800,102.00571,-76.61287
22.86000,101.73050,-76.69681
22.87200,101.77500,-76.72259
22.89400,102.09247,-76.77541
22.90600,102.16895,-76.79285
22.92800,101.86604,-76.79486
22.94000,101.46474,-76.77069
22.96200,100.73416,-76.74092
22.97400,100.87401,-76.76254
22.99600,100.79115,-76.88242
23.01800,100.91425,-76.91240
23.03000,100.71064,-76.88569
23.05200,100.30908,-76.81509
23.06400,100.04057,-76.77612
23.08600,99.79745,-76.75887
23.09800,100.09404,-76.83659
23.12000,100.72183,-77.12900
23.14200,101.20073,-77.50864
23.15400,101.48521,-77.66920
23.17600,101.91843,-77.88550
23.18800,101.92717,-77.99250
23.21000,102.29330,-78.10342
23.22200,102.15297,-78.06157
23.24400,101.63023,-77.85257
23.26600,101.45757,-77.63612
23.27800,101.47036,-77.53934
23.30000,101.88338,-77.34274
23.31200,102.12936,-77.23583
23.33400,102.37732,-77.17748
23.34600,102.43266,-77.19736
23.36800,102.95940,-77.22701
23.38000,103.54099,-77.21191
23.40200,103.90319,-77.12954
23.42400,104.43791,-77.02245
23.43600,104.51694,-77.00137
23.45800,104.63522,-77.07209
23.47000,104.91394,-77.07825
23.49200,105.41704,-77.13593
23.50400,105.75854,-77.16682
23.52600,105.88271,-77.23043
23.54800,105.99057,-77.31920
23.56000,106.07901,-77.36839
23.58200,106.26996,-77.42658
23.59400,106.61830,-77.42715
23.61600,107.20180,-77.49273
23.62800,107.51762,-77.56683
23.65000,108.45943,-77.68204
23.66200,108.79617,-77.73910
23.68400,109.65493,-77.84431
23.70600,110.25637,-77.93196
23.71800,110.41066,-77.94451
23.74000,109.95528,-77.89941
23.75200,109.73967,-77.87608
23.77400,109.07138,-77.81635
23.78600,107.16795,-77.93989
23.80800,104.48676,-78.07652
23.83000,100.64050,-78.29037
23.84200,99.70317,-78.41795
23.86400,100.36002,-78.64544
23.87600,101.35986,-78.78085
23.89800,103.58654,-78.91621
23.91000,104.91978,-78.99673
23.93200,103.75706,-79.36029
23.95400,102.34046,-79.67255
23.96600,102.53397,-79.78989
23.98800,103.05199,-79.94713
24.00000,103.88863,-80.00819
24.02200,106.68823,-80.03695
24.03400,107.93201,-80.02803
24.05600,109.69178,-80.00003
24.06800,111.03332,-79.97055
24.09000,113.43304,-79.97728
24.11200,115.00422,-80.06971
24.12400,114.82016,-80.16348
24.14600,114.37583,-80.20302
24.15800,114.50780,-80.21494
24.18000,113.72683,-80.24611
24.19200,112.90938,-80.36458
24.21400,111.44998,-80.54632
24.23600,110.21947,-80.89458
24.24800,109.73798,-80.99346
24.27000,109.45082,-81.11904
24.28200,109.06089,-81.27676
24.30400,105.62305,-81.73534
24.31600,103.04772,-81.97301
24.33800,100.76230,-82.24139
24.36000,96.67289,-82.60314
24.37200,95.61375,-82.71306
24.39400,96.83031,-82.74989
24.40600,97.70010,-82.78196
24.42800,99.54206,-82.86603
24.44000,100.54705,-82.94398
24.46200,103.04134,-83.05408
24.47400,102.86505,-83.15166
24.49600,102.86114,-83.33717
24.51800,104.66310,-83.48879
24.53000,105.89246,-83.55944
24.55200,106.29145,-83.70340
24.56400,106.97704,-83.70922
24.58600,106.59869,-83.75163
24.59800,104.94929,-83.82555
24.62000,106.31719,-83.89712
24.64200,108.81249,-83.85617
24.65400,109.70988,-83.84460
24.67600,113.30533,-83.68822
24.68800,113.96032,-83.61180
24.71000,114.74587,-83.36593
24.72200,114.49916,-83.30215
24.74400,113.75391,-83.24517
24.75600,113.21966,-83.23780
24.78300,114.25857,-83.23609
24.79500,115.42948,-83.22273
24.81700,117.97336,-83.26291
24.82900,119.65498,-83.51024
24.85100,121.47749,-83.72773
24.86300,122.04556,-83.86546
24.88500,123.41695,-83.93631
24.90700,125.98199,-83.72820
24.91900,127.22778,-83.62375
24.94100,129.54987,-83.39517
24.95300,130.43245,-83.35284
24.97500,131.21823,-83.38026
24.98700,131.11987,-83.46519
25.00900,131.47467,-83.54523
25.02100,132.43149,-83.49636
25.04300,133.78766,-83.48025
25.06500,135.30092,-83.55046
25.07700,136.07501,-83.61048
25.09900,136.88292,-83.68124
25.11100,136.64369,-83.73358
25.13300,134.71176,-83.91858
25.14500,133.69249,-84.01077
25.16700,133.07039,-84.12306
25.18900,133.93018,-84.24432
25.20100,135.46112,-84.32414
25.22300,139.24371,-84.40363
25.23500,141.38722,-84.43443
25.25700,145.15152,-84.47781
25.26900,146.96828,-84.49771
25.29100,150.18492,-84.40633
25.30328,151.71519,-84.32366
25.32500,153.66356,-84.24139
25.34700,155.46472,-84.18564
25.35900,155.92609,-84.18890
25.38100,155.44679,-84.29171
25.39300,155.55171,-84.29559
25.41500,155.03163,-84.35551
25.42700,153.79326,-84.43736
25.44900,152.19228,-84.57143
25.47100,152.70461,-84.49377
25.48300,152.81201,-84.48558
25.50500,153.21054,-84.50663
25.51700,154.08833,-84.51823
25.53900,156.05576,-84.57407
25.55100,156.79227,-84.54842
25.57300,156.96719,-84.49405
25.59500,156.21155,-84.47944
25.60700,155.93173,-84.48050
25.62900,154.88409,-84.51337
25.64100,154.04993,-84.56952
25.66300,152.63200,-84.73031
25.67500,151.82390,-84.78823
25.69700,149.91206,-84.80099
25.71900,147.24132,-84.71365
25.73100,146.10345,-84.72318
25.75300,143.83093,-84.79410
25.76500,142.93703,-84.82270
25.78700,142.39966,-84.90652
25.79900,142.18486,-84.98287
25.82100,141.22264,-85.13538
25.83300,140.43851,-85.19376
25.85500,138.58003,-85.25018
25.87700,135.75710,-85.32609
25.88900,134.39745,-85.39083
25.91100,130.99570,-85.57189
25.92300,128.36328,-85.61237
25.94500,122.31303,-85.52126
25.95700,119.55409,-85.42350
25.97900,115.81770,-85.18069
26.00100,113.02728,-84.84835
26.01300,110.45039,-84.67825
26.03500,106.22751,-84.36535
26.04700,104.70703,-84.23843
26.06900,105.00484,-84.17896
26.08100,105.49582,-84.20220
26.10300,104.63606,-84.22785
26.11500,104.90945,-84.24686
26.13700,105.02231,-84.24571
26.15900,104.31937,-84.12583
26.17100,104.49926,-84.02312
26.19300,106.40548,-83.87103
26.20500,107.42494,-83.82666
26.22700,108.40115,-83.82018
26.23900,107.66633,-83.82371
26.26100,105.04942,-83.96460
26.28300,101.55477,-84.03043
26.29500,100.28262,-83.88980
26.31700,98.04870,-83.58433
26.32900,97.36606,-83.49066
26.35100,96.09978,-83.47839
26.36300,94.83281,-83.52518
26.38500,92.72771,-83.66379
26.40700,89.82986,-83.73261
26.41900,87.35075,-83.67596
26.44100,82.49696,-83.53749
26.45300,79.71181,-83.48410
26.47500,74.82384,-83.48611
26.48700,71.24125,-83.45937
26.50900,64.86143,-83.44943
26.52100,61.51908,-83.38052
26.54300,57.38379,-83.15484
26.56500,54.42586,-82.49184
26.57700,53.68519,-82.05349
26.59900,52.37182,-81.48500
26.61100,52.45489,-81.52910
26.63300,52.59735,-81.60625
26.64500,52.54468,-81.45624
26.66700,53.25971,-80.94843
26.68900,55.15041,-80.51091
26.70100,56.00282,-80.32701
26.72300,57.46832,-80.13598
26.73500,58.61399,-80.02017
26.75700,59.88858,-79.45319
26.77400,61.45552,-79.10248
26.78600,62.35075,-78.85462
26.80800,64.28642,-78.56213
26.83000,65.21526,-78.16835
26.84200,65.38088,-77.96169
26.86400,67.39632,-77.72136
26.87600,68.15470,-77.55392
26.89800,70.10326,-77.06438
26.91000,71.27148,-76.70146
26.93200,73.49530,-75.96441
26.94429,74.59052,-75.61873
26.96600,76.84042,-75.30230
26.98800,78.55567,-75.02280
27.00000,79.09900,-74.74594
27.02200,79.14327,-74.02940
27.03400,79.98631,-73.73837
27.05600,82.00365,-73.11008
27.06800,83.34799,-72.77556
27.09000,84.77849,-72.04188
27.11200,85.50676,-71.10583
27.12400,85.96823,-70.61512
27.14600,86.99247,-69.81524
27.15800,87.42329,-69.44257
27.18000,87.67663,-68.93937
27.19200,87.99847,-68.68281
27.21400,88.34796,-67.95264
27.23600,88.87659,-66.94278
27.24800,89.59784,-66.43163
27.27000,90.66814,-65.65508
27.28200,91.34206,-65.23478
27.30400,91.57516,-64.19078
27.31600,91.91607,-63.64347
27.33800,93.28688,-62.86491
27.35000,94.31369,-62.47373
27.37200,95.81747,-61.90415
27.39400,96.61615,-61.18200
27.40600,97.03506,-60.87228
27.42800,97.79789,-60.38090
27.44000,98.30175,-60.10939
27.46200,99.47947,-59.76285
27.47400,100.26185,-59.62858
27.49600,101.59209,-59.45383
27.51800,102.94962,-59.38233
27.53000,103.54440,-59.32835
27.55200,105.42682,-59.43684
27.56400,105.78809,-59.32600
27.58600,106.94169,-59.10686
27.59800,107.34113,-59.15860
27.62000,108.37574,-59.21244
27.64200,109.85435,-59.37748
27.65400,110.83447,-59.41582
27.67600,112.04814,-59.65945
27.68800,112.77671,-59.72258
27.71000,114.37567,-59.76616
27.72200,115.26547,-59.84169
27.74400,116.78503,-60.09848
27.76600,118.55943,-60.28596
27.77800,119.27488,-60.40679
27.80000,120.34790,-60.70254
27.81200,121.00417,-60.87867
27.83400,122.60056,-61.15251
27.84600,123.36565,-61.34909
27.86800,124.85198,-61.69281
27.88000,125.77827,-61.81985
27.90200,127.15649,-62.15275
27.92400,128.93828,-62.23785
27.93600,129.72275,-62.44743
27.95800,131.22685,-62.88911
27.97000,132.31581,-63.08213
27.99200,134.19330,-63.54894
28.00400,135.16026,-63.81060
28.02600,137.11038,-64.26601
28.03800,137.83928,-64.55424
28.06000,139.50000,-64.87504
28.08200,141.18752,-65.09544
28.09400,142.04478,-65.20695
28.11600,143.28294,-65.54610
28.12800,144.03310,-65.75153
28.15000,145.39641,-66.10315
28.16200,146.17557,-66.30186
28.18400,147.56569,-66.50116
28.20600,148.52693,-66.73782
28.21800,148.98215,-66.87611
28.24000,149.69368,-67.05560
28.25200,149.89407,-67.18002
28.27400,150.10347,-67.45860
28.28600,150.35750,-67.53047
28.30800,151.34161,-67.52399
28.33000,152.15752,-67.54786
28.34200,152.40997,-67.67268
28.36400,153.05707,-67.78246
28.37600,153.52605,-67.78902
28.39800,154.55597,-67.76885
28.41000,155.08519,-67.75935
28.43200,155.81029,-67.70081
28.44400,156.01027,-67.65358
28.46600,156.06471,-67.70458
28.48800,156.12027,-67.79603
28.50000,156.28285,-67.75826
28.52200,156.47531,-67.63868
28.53400,156.49413,-67.63830
28.55600,156.27856,-67.72351
28.56800,156.11937,-67.76647
28.59000,155.84590,-67.83316
28.61200,155.20825,-68.13654
28.62400,154.74963,-68.24397
28.64600,154.15283,-68.25927
28.65800,153.73532,-68.37676
28.68000,153.74663,-68.59999
28.69200,154.19685,-68.74722
28.71400,154.99675,-68.86756
28.73600,155.26279,-69.07790
28.74800,155.14928,-69.27261
28.77500,154.19783,-69.75640
28.78700,153.82892,-69.87068
28.79900,153.71596,-69.90141
28.82100,153.65521,-69.95397
28.83300,153.89854,-69.82911
28.85500,154.12166,-69.35909
28.87700,153.73769,-69.10519
28.88900,153.47342,-69.00320
28.91100,153.19331,-68.74948
28.92300,153.23558,-68.55009
28.94500,153.27026,-68.17506
28.95700,153.29451,-67.90999
28.97900,152.99562,-67.39043
28.99100,152.45102,-67.25832
29.01300,151.12775,-67.06598
29.03500,149.85332,-66.70023
29.04700,148.95657,-66.44293
29.06900,146.54160,-65.94324
29.08100,144.93105,-65.61248
29.10300,141.72966,-64.92055
29.12500,138.51750,-64.18556
29.13700,136.83517,-63.85395
29.15900,133.82156,-63.39424
29.17100,132.44604,-63.14064
29.19300,129.32391,-62.86782
29.20500,127.57008,-62.78204
29.22700,124.47469,-62.74918
29.23900,123.23170,-62.67533
29.26100,120.79701,-62.87972
29.28300,117.90775,-63.11444
29.29500,116.17908,-63.14658
29.31700,113.23493,-63.05904
29.32900,111.98630,-62.99921
29.35100,109.94662,-62.90977
29.36300,108.98322,-62.87649
29.38500,106.33116,-62.78702
29.40700,103.33957,-62.64017
29.41900,101.80167,-62.52310
29.44100,99.40420,-62.31150
29.45300,98.07801,-62.26125
29.47500,96.29763,-62.17587
29.48700,95.12881,-62.06111
29.50900,92.91221,-61.76049
29.52100,91.76009,-61.60907
29.54300,89.74070,-61.36869
29.56500,88.14911,-61.28038
29.57700,87.59185,-61.22899
29.59900,86.45902,-60.98415
29.61100,85.96272,-60.86290
29.63300,86.12193,-60.63879
29.64500,85.41855,-60.50713
29.66700,83.22808,-60.02377
29.68900,81.19760,-60.15886
29.70100,79.78832,-60.23336
29.72300,77.47171,-60.42376
29.73500,76.31405,-60.54449
29.75700,75.01958,-61.23437
29.76900,74.48097,-61.83142
29.79100,73.33001,-63.08782
29.80300,72.25919,-63.52772
29.82500,69.43130,-63.55957
29.84700,66.82495,-63.26255
29.85900,65.37498,-63.11573
29.88100,62.60175,-63.06905
29.89300,61.07627,-63.07992
29.91500,58.86560,-63.28233
29.92700,57.41615,-63.27856
29.94900,54.87980,-63.12679
29.97100,52.11250,-62.56246
29.98300,51.07352,-62.41114
30.00500,48.57340,-61.85656
30.01700,47.23484,-61.72371
30.03900,44.62519,-61.60194
30.05100,43.46091,-61.52773
30.07300,41.74586,-61.32971
30.09500,40.29617,-60.93174
30.10700,39.50509,-60.61511
30.12900,37.73397,-60.00745
30.14100,36.68237,-59.90220
30.16300,34.77625,-59.92942
30.17500,33.91066,-59.90712
30.19700,32.38339,-59.51573
30.20900,31.54095,-59.25883
30.23100,29.98805,-58.93058
30.25300,28.50805,-58.65763
30.26500,27.84040,-58.38588
30.28700,27.15789,-57.64489
30.29900,27.25159,-57.31232
30.32100,28.06330,-56.70613
30.33300,28.45238,-56.27642
30.35500,29.78988,-55.84168
30.37700,31.24223,-55.72384
30.38900,31.73501,-55.87358
30.41100,32.20368,-56.58347
30.42300,32.32076,-57.11309
30.44500,32.89485,-58.51596
30.45700,33.31459,-59.03558
30.47900,34.41953,-59.84816
30.49100,35.11021,-60.31059
30.51300,36.56229,-61.32925
30.53500,38.21628,-62.28492
30.54700,39.22845,-62.64441
30.56900,41.26786,-63.45648
30.58100,42.36295,-63.86224
30.60300,44.14851,-64.32602
30.61500,45.13993,-64.55930
30.63700,46.84499,-64.94020
30.65900,48.59984,-65.26876
30.67100,49.59782,-65.39735
30.69300,51.32993,-65.42004
30.70500,52.55685,-65.60370
30.72700,55.16440,-66.05496
30.73900,56.56526,-66.31651
30.76100,59.17730,-66.95393
30.77800,61.00678,-67.41165
30.80000,62.17817,-67.46146
30.81200,62.64409,-67.27091
30.83400,63.66917,-66.56924
30.84600,64.05692,-66.16443
30.86800,64.15739,-65.73922
30.88000,64.24561,-65.88319
30.90200,65.75028,-66.75526
30.92400,67.97846,-67.35036
30.93600,68.72430,-67.15465
30.95800,69.87414,-66.48895
30.97000,70.10549,-66.09119
30.99200,70.44164,-65.62488
31.00400,70.81020,-65.55235
31.02600,71.65040,-65.49099
31.03829,72.18326,-65.41946
31.06000,72.73012,-65.10250
31.08200,73.32173,-64.78302
31.09400,73.86790,-64.65769
31.11600,75.73174,-64.78960
31.12800,76.98454,-65.09776
31.15000,78.43694,-66.06227
31.16200,78.71186,-66.60254
31.18400,79.50423,-67.36237
31.20600,78.75803,-67.47366
31.21800,77.98214,-67.37830
31.24000,76.72569,-67.08498
31.25200,76.26283,-66.91691
31.27400,76.25015,-66.50917
31.28600,76.48811,-66.22541
31.30800,77.57578,-65.65908
31.33000,78.72520,-65.09820
31.34200,79.41113,-64.92329
31.36400,80.59005,-64.75384
31.37600,81.09864,-64.63072
31.39800,82.09129,-64.54856
31.41000,82.52251,-64.39339
31.43200,83.03018,-64.03286
31.44400,83.32140,-63.88007
31.46600,83.81809,-63.64058
31.48800,83.94212,-63.30089
31.50000,84.07917,-63.12893
31.52200,84.86131,-62.97366
31.53400,85.47832,-62.96984
31.55600,86.24010,-62.85010
31.57800,86.81161,-62.64849
31.59000,87.13773,-62.52825
31.61200,87.80022,-62.41849
31.62400,87.91010,-62.39005
31.64600,88.18613,-62.40860
31.65800,88.28302,-62.47178
31.68000,88.71930,-62.67604
31.69200,89.07422,-62.75185
31.71400,89.38243,-62.76967
31.72629,89.61663,-62.73690
31.74800,89.95728,-62.68685
31.77000,90.65262,-62.68047
31.78200,90.80449,-62.65163
31.80400,91.26197,-62.64997
31.81600,91.47580,-62.57347
31.83800,91.90668,-62.37236
31.85000,92.22824,-62.23900
31.87200,92.76635,-61.95282
31.89400,93.00270,-61.71708
31.90600,93.10685,-61.59174
31.92800,93.04562,-61.41404
31.94000,93.09093,-61.32302
31.96200,93.20879,-61.22044
31.97400,93.42071,-61.20630
31.99600,93.81531,-61.11954
32.01800,93.97688,-60.96935
32.03000,93.90657,-60.89962
32.05200,94.18436,-60.89783
32.06400,94.23795,-60.89671
32.08600,94.01756,-60.83970
32.09800,93.91518,-60.80117
32.12000,94.06745,-60.80271
32.13200,94.09420,-60.83270
32.15400,94.34480,-60.82631
32.17600,94.35784,-60.71031
32.18800,94.46362,-60.57741
32.21000,94.83632,-60.30760
32.22200,94.90570,-60.21050
32.24400,95.16537,-60.13299
32.25600,95.44688,-60.05202
32.27800,95.67567,-59.79909
32.30000,95.64899,-59.59673
32.31200,95.58960,-59.46353
32.33400,95.15916,-59.12259
32.34600,95.04620,-59.00816
32.36800,94.88229,-58.86331
32.38000,94.62288,-58.85463
32.40200,94.22056,-58.82394
32.42400,93.66482,-58.75771
32.43600,93.43278,-58.76188
32.45800,93.05033,-58.89716
32.47000,92.73194,-59.07682
32.49200,91.73899,-59.48679
32.50400,91.30540,-59.85317
32.52600,90.66905,-60.60144
32.53800,90.08419,-61.00374
32.56000,88.73273,-61.77013
32.58200,86.89634,-62.57012
32.59400,85.93888,-62.98536
32.61600,84.69809,-63.55000
32.62800,83.90148,-63.82881
32.65000,81.89018,-64.35000
32.66200,80.97618,-64.73955
32.68400,79.23290,-65.50695
32.70600,77.48918,-66.24935
32.71800,76.47708,-66.65730
32.74000,74.44892,-67.22629
32.75200,73.37922,-67.53547
32.77900,71.62539,-68.35627
32.79100,70.91510,-68.70069
32.80300,70.05606,-68.97197
32.82500,68.15686,-69.32998
32.84700,66.69286,-69.83727
32.85900,66.02843,-70.12982
32.88100,65.59771,-70.76113
32.89300,65.33773,-71.11893
32.91500,64.33929,-71.63947
32.92700,63.82829,-71.88898
32.94900,63.06155,-72.38106
32.97100,62.03203,-72.84583
32.98300,61.61403,-73.20808
33.00500,60.35205,-73.88065
33.01700,59.51373,-74.20094
33.03900,58.52449,-74.87294
33.05100,58.16094,-75.26679
33.07300,56.67321,-75.85191
33.08500,55.53799,-76.13166
33.10700,53.32779,-76.65368
33.12900,51.50986,-77.21856
33.14100,50.67544,-77.55241
33.16300,48.89484,-78.18780
33.17500,47.51112,-78.40546
33.19700,45.29036,-78.60429
33.20900,44.59631,-78.60412
33.23100,43.02665,-78.22392
33.25300,41.49378,-77.92538
33.26500,40.91147,-77.88569
33.28700,39.70636,-77.74203
33.29900,39.19218,-77.68108
33.32100,37.96876,-77.42825
33.33300,37.90975,-77.28163
33.35500,37.96534,-76.64250
33.37700,38.20383,-76.03983
33.38900,38.28172,-75.84752
33.41100,38.76701,-75.67823
33.42300,38.99607,-75.52044
33.44500,39.38921,-75.05902
33.45700,39.84297,-74.90727
33.47900,41.10220,-74.77288
33.49100,42.25036,-74.71126
33.51300,45.16545,-74.12373
33.53500,49.05420,-72.82015
33.54700,51.87226,-71.87761
33.56900,57.28923,-69.96910
33.58100,60.31337,-68.83131
33.60300,65.05978,-66.38882
33.61500,67.38252,-64.83926
33.63700,71.12709,-62.03957
33.65900,72.80229,-58.95188
33.67100,72.77798,-57.15176
33.69300,72.77950,-53.94472
33.70500,73.40304,-52.47433
33.72700,75.32254,-49.56586
33.73900,76.94627,-47.93684
33.76100,80.03817,-44.94566
33.78300,82.27468,-41.92818
33.79500,83.28839,-40.34161
33.81700,84.10242,-37.54685
33.82900,84.44975,-35.87571
33.85100,85.12417,-32.19965
33.86300,85.49297,-30.16865
33.88500,86.18488,-26.74220
33.89700,86.70268,-25.33009
33.91900,87.72237,-23.05647
33.94100,88.61613,-20.37847
33.95300,89.12357,-18.76643
33.97500,90.27444,-16.00200
33.98700,90.68302,-14.64178
34.00900,91.42305,-12.25450
34.02100,91.87971,-10.95505
34.04300,92.58434,-8.76827
34.06500,93.38746,-6.69410
34.07700,93.71622,-5.58136
34.09900,94.42464,-3.97060
34.11100,94.68339,-3.24004
34.13300,95.01671,-1.72083
34.14500,95.13162,-0.78989
34.16700,95.49121,1.15249
34.17929,95.43144,2.25700
34.20200,94.89802,3.75700
34.22400,94.53440,4.80007
34.23600,94.42406,5.18898
34.25800,94.09859,5.83219
34.27000,94.05273,6.09091
34.29200,93.73229,6.48398
34.30400,93.59621,6.62537
34.32600,93.47694,6.41757
34.33800,93.47256,6.27527
34.36000,93.40499,5.81125
34.38200,93.25900,5.48093
34.39400,93.04936,5.46092
34.41600,92.98241,5.57750
34.42800,92.70272,5.76844
34.45000,92.28577,6.18414
34.46200,92.13266,6.40511
34.48400,91.97183,6.51347
34.50600,91.60748,6.58445
34.51800,91.49857,6.60990
34.54000,91.25651,6.65361
34.55200,91.15594,6.58469
34.57400,90.91158,6.82603
34.58600,90.65332,6.85399
34.60800,91.13267,7.69651
34.63000,91.77676,8.57155
34.64200,92.02262,9.17134
34.66400,92.41969,10.12979
34.67600,92.30231,10.52756
34.69800,91.90471,10.98679
34.71000,91.62968,11.12510
34.73200,91.10963,11.64793
34.74400,90.72683,11.71674
34.76600,89.60539,12.09752
34.78300,88.89710,12.40684
34.80500,87.97641,12.75577
34.81700,87.59019,12.70378
34.83900,86.35931,12.42999
34.85100,85.84849,11.89154
34.87300,85.23378,11.42506
34.88500,84.80658,11.49221
34.90700,84.05421,12.09862
34.92900,82.78102,12.52013
34.94100,82.06200,12.64027
34.96300,81.11832,12.62069
34.97500,80.53782,12.39600
34.99700,79.44154,11.82077
35.00900,78.77718,11.50546
35.03100,77.59250,10.89735
35.05300,76.18928,10.69572
35.06500,75.39973,10.72474
35.08700,73.73839,10.69351
35.09900,72.92526,10.35514
35.12100,72.18595,9.60620
35.13300,71.35660,9.42433
35.15500,67.84628,5.91744
35.17700,65.56785,5.09126
35.18900,64.65361,4.74575
35.21100,62.06784,2.19019
35.22300,60.59489,-0.64017
35.24500,58.36979,-4.71894
35.25700,58.72335,-4.37787
35.27900,57.71555,-3.73431
35.29100,56.49501,-3.44640
35.31300,55.57610,-2.42597
35.33500,54.97762,-1.56097
35.34700,54.65272,-1.38969
35.36900,54.02716,-1.16146
35.38100,53.59476,-0.85270
35.40300,52.85598,0.26567
35.41500,52.46235,0.78306
35.43700,51.37778,0.19527
35.45900,50.49776,0.16330
35.47100,50.03450,0.56723
35.49300,49.13499,1.20231
35.50500,48.69040,1.33548
35.52700,47.86989,1.10936
35.53900,47.46313,1.25570
35.56100,46.50533,1.15355
35.57329,45.91111,1.03396
35.59500,45.00603,1.28414
35.61700,44.43717,1.70959
35.62900,44.15038,1.70028
35.65100,43.60081,1.60416
35.66300,42.92054,1.95423
35.68500,41.75093,3.18302
35.69700,41.11582,3.69546
35.71900,40.20006,4.49863
35.74100,39.44344,5.38792
35.75300,38.87414,5.64426
35.77500,37.67731,5.71245
35.78700,36.97190,5.73197
35.80900,35.82631,5.80760
35.82100,35.30311,5.93093
35.84300,34.82575,6.25121
35.86500,34.45791,6.19291
35.87700,34.57696,6.01618
35.89900,34.36473,5.57572
35.91100,33.88506,5.60608
35.93300,33.05946,5.69694
35.94500,32.74979,5.55107
35.96700,32.50414,4.95658
35.97900,32.40476,4.75976
36.00100,32.36084,4.47892
36.02300,32.09436,4.21492
36.03500,31.88425,4.38797
36.05700,31.38009,4.01697
36.06900,30.54026,3.97005
36.09100,29.76870,3.75786
36.10300,29.50772,3.80210
36.12500,29.11639,3.99961
36.14700,28.66237,4.50743
36.15900,28.51027,4.80256
36.18100,28.46733,4.91510
36.19300,28.44882,4.88188
36.21500,28.31662,5.11501
36.22700,28.22976,5.28033
36.24900,28.17772,5.27106
36.27100,28.15981,5.18445
36.28300,28.04075,5.30415
36.30500,27.85527,5.44270
36.31700,27.75518,5.37914
36.33900,28.05175,4.80220
36.35100,28.09451,4.58678
36.37300,28.06989,4.28531
36.38500,28.01226,4.31267
36.40700,27.68202,4.42812
36.42900,27.64769,4.56030
36.44100,27.64058,4.63750
36.46300,27.48318,4.71615
36.47500,27.28093,4.73028
36.49700,26.91882,4.76096
36.50900,26.75315,4.68180
36.53100,26.74591,4.49875
36.55300,26.64015,4.28953
36.56500,26.57300,4.20937
36.58700,26.37298,4.07399
36.59900,26.22686,3.98195
36.62100,26.12255,4.09187
36.63300,26.13470,4.23748
36.65500,26.05512,4.47052
36.67700,25.75786,4.53931
36.68900,25.61480,4.50001
36.71100,25.88927,4.53421
36.72300,25.89875,4.40418
36.74500,25.86669,4.52530
36.75700,25.84069,4.46531
36.78400,25.78458,4.54073
36.79600,25.70079,4.61805
36.81800,25.70743,4.58772
36.83000,25.68977,4.54253
36.85200,25.73414,4.42404
36.86400,25.73726,4.35528
36.88600,25.78676,4.34244
36.89800,25.76735,4.39309
36.92000,25.70811,4.38498
36.93200,25.68785,4.32697
36.95400,25.71384,4.12346
36.97600,25.81895,4.06191
36.98800,25.84669,3.95282
37.01000,25.93353,3.81731
37.02200,26.04672,3.77429
37.04400,26.24633,3.74200
37.05600,26.33361,3.90399
37.07800,26.42721,4.02445
37.10000,26.55303,4.05313
37.11200,26.62695,4.03315
37.13400,26.78534,3.98294
37.14600,26.89045,3.94363
37.16800,27.09097,3.88494
37.18000,27.12249,3.95787
37.20200,27.17528,4.06324
37.22400,27.32745,4.17077
37.23600,27.40298,4.19058
37.25800,27.54605,4.18752
37.27000,27.66145,4.21451
37.29200,27.99988,4.44294
37.30400,28.16151,4.57111
37.32600,28.58845,4.91205
37.33800,28.84381,5.05016
37.36000,29.39828,5.18634
37.38200,29.99393,5.25555
37.39400,30.38196,5.33213
37.41600,31.09082,5.42889
37.42800,31.51339,5.48567
37.45000,32.25192,5.71299
37.47200,33.05567,5.92995
37.48400,33.45001,6.04264
37.50600,34.17147,6.30414
37.51800,34.53717,6.45787
37.54000,35.18489,6.72700
37.55200,35.56235,6.82716
37.57400,36.27688,6.99557
37.58600,36.68462,7.00043
37.60800,37.30594,6.73087
37.62000,37.66446,6.42928
37.64200,38.50602,6.03639
37.66400,39.50563,5.68794
37.67600,40.18245,5.58623
37.69800,41.54906,5.34743
37.71000,42.38413,5.19735
37.73200,44.06124,4.97329
37.74400,45.08593,4.80200
37.76600,47.11444,4.45941
37.78800,49.34045,4.12523
37.80000,50.64634,3.88736
37.82200,53.32102,3.59876
37.83400,54.78129,3.44252
37.85600,57.63820,3.61279
37.86800,59.07854,3.43723
37.89000,61.31549,3.23491
37.91200,64.23831,2.81896
37.92400,65.68387,2.69675
37.94600,68.38441,2.50400
37.95800,70.23206,2.36651
37.98000,73.45411,1.88693
37.99200,74.84196,1.63343
38.01400,76.99075,1.40638
38.02600,77.92589,1.33652
38.04800,79.56701,1.28241
38.07000,81.13866,1.30593
38.08200,81.93585,1.37018
38.10400,83.31180,1.55656
38.11600,84.04290,1.67989
38.13800,85.25758,1.85723
38.15000,85.83029,1.90125
38.17200,86.86979,1.92563
38.19400,87.96571,1.87803
38.20600,88.54992,1.82355
38.22800,89.59811,1.73892
38.24000,90.18542,1.68125
38.26200,91.13503,1.50427
38.27400,91.64270,1.38607
38.29600,92.56443,1.10489
38.31800,93.24533,0.83864
38.33000,93.64762,0.66069
38.35200,94.38778,0.35230
38.36400,94.79134,0.18638
38.38600,95.24407,-0.06053
38.39800,95.47331,-0.10260
38.42000,95.85780,-0.06125
38.43200,96.08189,0.01785
38.45400,96.36163,0.32411
38.47600,96.56284,0.74572
38.48800,96.61330,1.04168
38.51000,96.61676,1.60021
38.52200,96.67268,1.84440
38.54400,96.77933,2.09907
38.55600,96.83277,2.17561
38.57800,96.74881,2.13760
38.60000,96.62812,1.97653
38.61200,96.58630,1.88220
38.63400,96.55923,1.73079
38.64600,96.60216,1.66942
38.66800,96.75871,1.51914
38.68000,96.69610,1.33407
38.70200,96.46155,0.99720
38.72400,96.34132,0.75827
38.73600,96.30199,0.66490
38.75800,96.29316,0.48139
38.77000,96.29089,0.39047
38.78700,96.28492,0.22003
38.80900,96.28299,0.00413
38.82100,96.31076,-0.11826
38.84300,96.42863,-0.35298
38.86500,96.60745,-0.55762
38.87700,96.73463,-0.66157
38.89900,96.85174,-0.81458
38.91100,96.91525,-0.89500
38.93300,97.03845,-1.03677
38.94500,97.07922,-1.10730
38.96700,97.24324,-1.19984
38.97900,97.31345,-1.18227
39.00100,97.59155,-1.16736
39.02300,97.88918,-1.15560
39.03500,98.01390,-1.11934
39.05700,98.29735,-1.17186
39.06900,98.38407,-1.18337
39.09100,98.58340,-1.18927
39.10300,98.71056,-1.17371
39.12500,98.91060,-1.14523
39.14700,99.14663,-1.15212
39.15900,99.29724,-1.17555
39.18100,99.52350,-1.27848
39.19300,99.60375,-1.33836
39.21500,99.75730,-1.48485
39.22700,99.79524,-1.56285
39.24900,100.02921,-1.66677
39.27100,100.14793,-1.78362
39.28300,100.19420,-1.83420
39.30500,100.23743,-1.86983
39.31700,100.27924,-1.84919
39.33900,100.35854,-1.77227
39.35100,100.44255,-1.73013
39.37300,100.63811,-1.64545
39.38500,100.72449,-1.59242
39.40700,100.81930,-1.45784
39.42900,100.83468,-1.29564
39.44100,100.84319,-1.20408
39.46300,100.93515,-1.04496
39.47500,101.01263,-0.97150
39.49700,101.10865,-0.82805
39.50900,101.14517,-0.74157
39.53100,101.20377,-0.61045
39.55300,101.19205,-0.46994
39.56500,101.18597,-0.38280
39.58700,101.18984,-0.18757
39.59900,101.19978,-0.10556
39.62100,101.18856,-0.00134
39.63300,101.18286,0.03305
39.65500,101.15276,0.06649
39.66700,101.13758,0.06932
39.68900,101.12887,0.10832
39.71100,101.13162,0.17418
39.72300,101.14155,0.21339
39.74500,101.15429,0.30139
39.75700,101.14451,0.34354
39.77900,101.16682,0.43683
39.79100,101.17484,0.48450
39.81300,101.21035,0.59845
39.83500,101.22890,0.72224
39.84700,101.23716,0.79676
39.86900,101.25362,0.89293
39.88100,101.28449,0.91526
39.90300,101.31059,0.93665
39.91500,101.27406,0.92732
39.93700,101.19978,0.93204
39.95900,101.17455,0.88903
39.97100,101.17581,0.87102
39.99300,101.13578,0.85388
40.00500,101.10158,0.87035
40.02700,101.00127,0.96527
40.03900,100.96510,1.04117
40.06100,100.98167,1.18409
40.07300,100.98670,1.28298
40.09500,100.91040,1.48685
40.11700,100.77934,1.70700
40.12900,100.71275,1.79620
40.15100,100.69150,1.87934
40.16300,100.69974,1.89674
40.18500,100.69888,1.92695
40.19700,100.68492,1.95798
40.21900,100.64388,2.04100
40.24100,100.62317,2.10701
40.25300,100.61093,2.14405
40.27500,100.52998,2.23231
40.28700,100.45039,2.28930
40.30900,100.36758,2.36882
40.32100,100.30936,2.39579
40.34300,100.17741,2.46398
40.36500,100.06789,2.64001
40.37700,99.97500,2.76781
40.39900,99.83713,3.02407
40.41100,99.77403,3.15359
40.43300,99.64584,3.38480
40.44500,99.51261,3.52229
40.46700,99.28012,3.76845
40.47900,99.12328,3.86172
40.50100,98.94828,3.95458
40.52300,98.60971,4.17679
40.53500,98.42062,4.28508
40.55700,98.09581,4.44569
40.56900,97.98022,4.45778
40.59100,97.74799,4.50335
40.60300,97.69962,4.52533
40.62500,97.63284,4.41181
40.64700,97.66383,4.03363
40.65900,97.68788,3.70546
40.68100,97.69320,3.15246
40.69300,97.75426,2.88871
40.71500,97.90045,2.49227
40.72700,98.00418,2.37606
40.74900,98.21312,2.32579
40.76129,98.33340,2.34304
40.78800,98.48648,2.47500
40.80000,98.44843,2.57584
40.82200,98.23435,2.77042
40.83400,98.13847,2.82398
40.85600,97.92834,2.89949
40.86800,97.82783,2.90911
40.89000,97.70642,2.85118
40.91200,97.54433,2.71798
40.92400,97.47800,2.65136
40.94600,97.39309,2.55135
40.95800,97.34441,2.52072
40.98000,97.26423,2.51323
40.99200,97.23291,2.55055
41.01400,97.17506,2.63351
41.02600,97.12632,2.66565
41.04800,97.06995,2.72031
41.07000,97.01975,2.74847
41.08200,96.99303,2.76171
41.10400,96.90472,2.81809
41.11600,96.88013,2.86915
41.13800,96.83712,2.95895
41.15000,96.83354,2.96512
41.17200,96.82456,2.92972
41.19400,96.81412,2.88125
41.20600,96.80814,2.83359
41.22800,96.82802,2.76492
41.24000,96.86381,2.74184
41.26200,96.86857,2.74979
41.27400,96.86649,2.76543
41.29600,96.87063,2.79888
41.31800,96.89216,2.77324
41.33000,96.90395,2.73213
41.35200,96.91109,2.65193
41.36400,96.91584,2.62280
41.38600,96.96774,2.57817
41.39800,97.00384,2.55528
41.42000,97.05801,2.51974
41.43200,97.04988,2.50024
41.45400,97.02647,2.46013
41.47600,96.96532,2.39880
41.48800,96.92764,2.36879
41.51000,96.82302,2.33486
41.52200,96.75620,2.36096
41.54400,96.58351,2.49911
41.55600,96.52412,2.58795
41.57800,96.37421,2.75174
41.60000,96.21336,2.88786
41.61200,96.14345,2.93472
41.63400,96.11985,2.97785
41.64600,96.14958,3.01019
41.66800,96.21638,3.04438
41.68000,96.23626,3.02856
41.70200,96.22474,2.94421
41.71400,96.20791,2.87511
41.73600,96.16595,2.70646
41.75800,96.17767,2.52155
41.77000,96.18339,2.41749
41.79200,96.20268,2.25962
41.80400,96.18873,2.18403
41.82600,96.15480,2.12240
41.83800,96.13463,2.08783
41.86000,96.27946,2.01151
41.88200,96.56974,1.77515
41.89400,96.68142,1.66999
41.91600,96.88046,1.50434
41.92800,96.98177,1.42348
41.95000,97.08924,1.30614
41.96200,97.13887,1.24564
41.98400,97.26223,1.11554
42.00600,97.40994,0.95744
42.01800,97.50539,0.85307
42.04000,97.69293,0.63120
42.05200,97.80755,0.50523
42.07400,97.98555,0.33765
42.08600,98.03575,0.25026
42.10800,98.09202,0.06707
42.12000,98.14271,-0.03302
42.14200,98.22374,-0.25884
42.16400,98.22358,-0.55061
42.17600,98.27975,-0.67558
42.19800,98.35649,-0.87968
42.21000,98.42443,-0.93668
42.23200,98.41479,-0.96922
42.24400,98.35713,-1.00922
42.26600,98.32094,-1.15698
42.28800,98.26324,-1.26469
42.30000,98.26826,-1.31310
42.32200,98.21051,-1.35107
42.33400,98.12666,-1.34267
42.35600,98.02748,-1.29164
42.36800,97.96452,-1.24412
42.39000,97.90679,-1.12537
42.41200,97.89107,-1.03725
42.42400,97.88117,-1.00457
42.44600,97.94118,-0.97179
42.45800,97.97436,-0.95217
42.48000,98.07670,-0.92275
42.49200,98.11961,-0.91453
42.51400,98.14582,-0.90329
42.52600,98.11527,-0.88133
42.54800,98.10487,-0.84431
42.57000,98.02612,-0.76966
42.58200,98.01343,-0.70689
42.60400,98.00731,-0.62115
42.61600,97.99593,-0.59854
42.63800,97.94737,-0.61228
42.65000,97.93426,-0.62922
42.67200,97.96791,-0.65395
42.69400,97.98058,-0.64858
42.70600,98.00957,-0.65223
42.72800,97.88931,-0.63931
42.74000,97.84623,-0.60265
42.76200,97.83735,-0.50374
42.77400,97.84485,-0.45352
42.79100,97.72370,-0.37648
42.81300,97.56654,-0.31387
42.83500,97.32224,-0.17881
42.84700,97.23843,-0.12514
42.86900,97.03822,-0.06925
42.88100,96.94639,0.00973
42.90300,96.81435,0.02568
42.91500,96.72535,0.04515
42.93700,96.55990,0.02860
42.95900,96.47448,-0.02816
42.97100,96.45873,-0.04952
42.99300,96.47115,-0.07229
43.00500,96.47407,-0.06833
43.02700,96.44968,-0.03081
43.03900,96.43885,-0.01234
43.06100,96.39598,0.03987
43.07300,96.36964,0.07550
43.09500,96.33650,0.10679
43.11700,96.27605,0.12305
43.12900,96.25188,0.12708
43.15100,96.12298,0.12621
43.16300,96.06290,0.13223
43.18500,95.95982,0.17404
43.19700,95.91705,0.19787
43.21900,95.94801,0.23487
43.24100,95.89314,0.28358
43.25300,95.87672,0.29490
43.27500,95.89639,0.31055
43.28700,95.91027,0.31276
43.30900,95.95537,0.34235
43.32100,95.98482,0.36378
43.34300,96.07348,0.39888
43.35529,96.08778,0.40630
43.37700,96.13441,0.37169
43.39900,96.16599,0.32204
43.41100,96.24493,0.25289
43.43300,96.42950,0.15996
43.44500,96.56831,0.11355
43.46700,96.91028,0.03572
43.47900,97.11437,0.00308
43.50100,97.54650,-0.03475
43.52300,98.04841,-0.10461
43.53500,98.35254,-0.15988
43.55700,98.89114,-0.25529
43.56900,99.06380,-0.30478
43.59100,99.38847,-0.44088
43.60300,99.58087,-0.52405
43.62500,99.83890,-0.67777
43.64700,100.04050,-0.83959
43.65900,100.16903,-0.91771
43.68100,100.44243,-1.01746
43.69300,100.57927,-1.07214
43.71500,100.74825,-1.17925
43.72700,100.82956,-1.19509
43.74900,100.91553,-1.16602
43.76100,100.97189,-1.13466
43.78300,101.08154,-1.10747
43.80500,101.17039,-1.06377
43.81700,101.25063,-1.03384
43.83900,101.36440,-0.98607
43.85100,101.41313,-0.96810
43.87300,101.48981,-0.94010
43.89500,101.56004,-0.91283
43.90700,101.58543,-0.88484
43.92900,101.60767,-0.84916
43.94100,101.64973,-0.83500
43.96300,101.71757,-0.83336
43.97500,101.76344,-0.82833
43.99700,101.81309,-0.78858
44.00900,101.86516,-0.75299
44.03100,101.95708,-0.67908
44.05300,102.02203,-0.60854
44.06500,102.05248,-0.56430
44.08700,102.13467,-0.48276
44.09900,102.14521,-0.44132
44.12100,102.11779,-0.32758
44.13300,102.13791,-0.27854
44.15500,102.18496,-0.42181
44.16700,102.21730,-0.33379
44.18900,102.35916,-0.29073
44.21100,102.58264,-0.23229
44.22300,102.75980,-0.20492
44.24500,103.28519,-0.10930
44.25700,103.63481,-0.11953
44.27900,104.32719,-0.08611
44.29100,104.79474,-0.08864
44.31300,105.74093,-0.16704
44.33500,106.77178,-0.16992
44.34700,107.37723,-0.15931
44.36900,108.53983,-0.16209
44.38100,109.24953,-0.14324
44.40300,110.69634,-0.34831
44.41500,111.51168,-0.44840
44.43700,112.83160,-0.73489
44.45900,114.69056,-1.01574
44.47100,115.38865,-1.07464
44.49300,116.37416,-1.06026
44.50500,116.83184,-1.16172
44.52700,117.76167,-1.86403
44.53900,118.19157,-2.29745
44.56100,118.98940,-3.10664
44.57300,119.39258,-3.57285
44.59500,120.17791,-4.45200
44.61700,120.82748,-5.33005
44.62900,121.24400,-5.87842
44.65100,122.19863,-7.01404
44.66300,122.55093,-7.62746
44.68500,123.34870,-8.59155
44.69700,123.81744,-9.03665
44.71900,124.62835,-9.92968
44.74100,125.30506,-10.67013
44.75300,125.61833,-11.11161
44.77500,126.33628,-12.05975
44.79200,126.91454,-12.88597
44.80400,127.34820,-13.35082
44.82600,127.98602,-14.20072
44.84800,128.66476,-14.74688
44.86000,129.13730,-14.90513
44.88200,129.78568,-15.15973
44.89400,130.15289,-15.36816
44.91600,130.71181,-15.68141
44.92800,131.00037,-15.88531
44.95000,131.40585,-16.25356
44.96200,131.63840,-16.44037
44.98400,132.01305,-16.67334
44.99600,132.24934,-16.85377
45.01800,132.57452,-17.20221
45.04000,132.86092,-17.59635
45.05200,132.97290,-17.83088
45.07400,133.19403,-18.33032
45.08600,133.34816,-18.58179
45.10800,133.53519,-19.08494
45.12000,133.56505,-19.29644
45.14200,133.56888,-19.78071
45.16400,133.54855,-20.09887
45.17600,133.57155,-20.38615
45.19800,133.63498,-20.68277
45.21000,133.70641,-20.73012
45.23200,133.82455,-20.71266
45.24400,133.88098,-20.65902
45.26600,133.91287,-20.62648
45.28800,133.88225,-20.69200
45.30000,133.86017,-20.75255
45.32200,133.79962,-20.84000
45.33400,133.74139,-20.85280
45.35600,133.74574,-20.83669
45.36800,133.77682,-20.72371
45.39000,133.83932,-20.48670
45.40200,133.88365,-20.33420
45.42400,133.93452,-19.94979
45.44600,134.05721,-19.54480
45.45800,134.09128,-19.32856
45.48000,134.10973,-18.93312
45.49200,134.15993,-18.66186
45.51400,134.10118,-18.02896
45.52600,134.01439,-17.69637
45.54800,133.71317,-17.11508
45.57000,133.35902,-16.49099
45.58200,133.12477,-16.13123
45.60400,132.74887,-15.53220
45.61600,132.51443,-15.17978
45.63800,132.02921,-14.44388
45.65000,131.68594,-13.99686
45.67200,130.95300,-13.12157
45.69400,130.14174,-12.13662
45.70600,129.69643,-11.64618
45.72800,128.96722,-11.03841
45.74000,128.58127,-10.76129
45.76200,127.87720,-9.87938
45.77400,127.50523,-9.34208
45.79600,126.26060,-8.49517
45.80800,126.14327,-8.30206
45.83000,125.10892,-7.19573
45.85200,123.95644,-6.01704
45.86400,123.24541,-5.42743
45.88600,122.04485,-4.58395
45.89800,121.37573,-4.12108
45.92000,120.27525,-3.52008
45.93200,119.62930,-3.13802
45.95400,118.54295,-2.40237
45.97600,117.47536,-1.62241
45.98800,116.82008,-1.21924
46.01000,115.54710,-0.43994
46.02200,114.86974,-0.10643
46.04400,113.70012,0.28283
46.05600,113.02977,0.48533
46.07800,111.59338,0.98295
46.09029,110.82606,1.21603
46.11300,109.44453,1.56615
46.13500,108.11872,1.73052
46.14700,107.45746,1.65230
46.16900,106.24272,1.45102
46.18100,105.64608,1.33153
46.20300,104.50385,1.13720
46.21500,103.76432,1.01642
46.23700,102.42799,0.81662
46.24928,101.74109,0.82266
46.27100,100.57224,1.01326
46.29300,99.43282,1.31348
46.30500,98.82582,1.44786
46.32700,97.25716,1.56429
46.33900,96.24741,1.56040
46.36100,94.23385,1.71915
46.37300,93.15240,1.88054
46.39500,91.46581,1.98349
46.41700,90.19353,1.72602
46.42900,89.52378,1.46370
46.45100,88.10826,1.06452
46.46300,87.29091,0.89968
46.48500,86.22190,0.78515
46.49700,85.78599,0.69177
46.51900,85.09502,0.47471
46.54100,84.37936,0.23730
46.55300,83.90517,0.11889
46.57500,82.98452,-0.12783
46.58700,82.59849,-0.30375
46.60900,81.93141,-0.64244
46.62100,81.66010,-0.83488
46.64300,81.33245,-1.25598
46.65500,81.23802,-1.47971
46.67700,80.96008,-2.03456
46.69900,81.04536,-2.46676
46.71100,81.19111,-2.71571
46.73300,81.45504,-3.31682
46.74500,81.69471,-3.77873
46.76700,82.24919,-4.77565
46.77900,82.61219,-5.29804
46.80600,83.36235,-6.15130
46.81800,83.84133,-6.56067
46.84000,84.99701,-7.27909
46.85200,85.57752,-7.60713
46.87400,86.74992,-8.28723
46.88600,87.22984,-8.54097
46.90800,88.23391,-8.74708
46.93000,89.28555,-8.70067
46.94200,89.89732,-8.67962
46.96400,91.17028,-8.66970
46.97600,91.92003,-8.81417
46.99800,93.65652,-9.01490
47.01000,94.57764,-9.05543
47.03200,96.06207,-9.19406
47.04400,96.93998,-9.20945
47.06600,98.61337,-9.31224
47.08800,100.44656,-9.12668
47.10000,101.51987,-8.61367
47.12200,103.25020,-7.69854
47.13400,104.43198,-7.33844
47.15600,106.12428,-6.55166
47.16800,106.89730,-6.15206
47.19000,107.96514,-5.47261
47.20200,108.62514,-5.12523
47.22400,109.57559,-4.54839
47.24600,110.34438,-3.83914
47.25800,110.73503,-3.42390
47.28000,111.52255,-2.68599
47.29200,112.02577,-2.16351
47.31400,112.89656,-1.04231
47.32600,113.43070,-0.49057
47.34800,114.22403,0.39707
47.37000,114.98867,1.11432
47.38200,115.27550,1.39144
47.40400,115.71393,2.11438
47.41600,115.99040,2.52645
47.43800,116.59604,3.17552
47.45000,116.94862,3.58808
47.47200,117.37214,4.24023
47.49400,117.76796,4.83069
47.50600,117.97781,5.11878
47.52800,118.53212,5.71231
47.54000,118.78677,6.07105
47.56200,119.24723,6.77131
47.57400,119.54729,7.10200
47.59600,120.00883,7.54310
47.60800,120.26602,7.70349
47.63000,120.63213,8.05501
47.65200,121.09404,8.56203
47.66400,121.40316,8.68509
47.68600,122.46090,7.85797
47.69800,123.04646,7.22872
47.72000,124.05181,5.58366
47.74200,124.75548,4.72530
47.75400,125.04120,4.97401
47.77600,125.27323,6.32710
47.78800,125.39610,7.10861
47.81000,125.74909,8.27110
47.82200,126.03958,8.81545
47.84400,126.28449,9.43848
47.85600,126.40779,9.88622
47.87800,126.46513,11.24064
47.90000,126.41650,12.70878
47.91200,126.25810,13.47282
47.93400,126.16722,14.55913
47.94600,126.10968,14.84899
47.96800,126.05751,15.05484
47.98000,126.06246,15.15707
48.00200,126.15833,15.48798
48.02400,126.23579,15.84642
48.03600,126.27673,16.04189
48.05800,126.14564,16.32266
48.07000,126.08685,16.40928
48.09200,126.09924,16.62623
48.10400,126.14346,16.68811
48.12600,126.21819,16.79384
48.13800,126.24982,16.81661
48.16000,126.34003,16.77425
48.18200,126.50309,16.69816
48.19400,126.58767,16.68718
48.21600,126.61046,16.71184
48.22800,126.60162,16.70831
48.25000,126.63327,16.70550
48.26200,126.67757,16.66358
48.28400,126.77300,16.51271
48.29600,126.83015,16.44642
48.31800,126.96048,16.36727
48.34000,127.07931,16.28057
48.35200,127.12384,16.23508
48.37400,127.15600,16.23372
48.38600,127.14233,16.21678
48.40800,127.09776,16.16219
48.42000,127.05534,16.09965
48.44200,126.95158,15.97348
48.46400,126.77340,15.83484
48.47600,126.63279,15.71609
48.49800,126.21136,15.47254
48.51000,125.87135,15.29062
48.53200,125.09472,14.92059
48.54400,124.63667,14.67205
48.56600,123.81409,14.13841
48.58800,123.03378,13.62980
48.60000,122.80043,13.26397
48.62200,122.41235,12.49052
48.63400,122.21999,12.09543
48.65600,121.72752,11.25247
48.66800,121.40359,10.68085
48.69000,120.84504,9.89453
48.70200,120.42072,9.40151
48.72400,119.65826,8.76984
48.74600,118.86476,8.11837
48.75800,118.71583,7.63630
48.78000,118.13898,7.01711
48.79700,117.56341,6.78293
48.80900,117.28506,6.50269
48.83100,117.35702,6.42825
48.84300,117.03307,6.41822
48.86500,116.68871,6.52188
48.88700,116.11795,6.57219
48.89900,115.80769,6.59917
48.92100,115.19948,6.56762
48.93300,114.80983,6.52656
48.95500,113.97869,6.36617
48.96700,113.50967,6.25074
48.98900,112.80238,6.01245
49.01100,112.01731,5.79201
49.02300,111.58594,5.67460
49.04500,110.81778,5.33284
49.05700,110.38467,5.19168
49.07900,109.47950,5.04024
49.09100,108.90662,5.05529
49.11300,107.94738,5.12896
49.13500,107.19642,5.18118
49.14700,106.85810,5.22685
49.16900,106.32938,5.24262
49.18100,106.10117,5.30654
49.20300,105.78521,5.50107
49.21500,105.63278,5.58789
49.23700,105.47717,5.74725
49.24900,105.49547,5.80249
49.27100,105.62488,5.91352
49.29300,105.77724,6.05153
49.30500,105.85712,6.14658
49.32700,105.88751,6.28826
49.33900,105.87480,6.41094
49.36100,105.97516,6.62741
49.37300,106.02732,6.75077
49.39500,105.99255,7.10144
49.41700,105.70115,7.59194
49.42900,105.57246,7.81429
49.45100,105.41000,8.11744
49.46300,105.41176,8.30542
49.48500,105.37183,8.69752
49.49700,105.42946,8.92936
49.51900,105.64759,9.32330
49.54100,105.93356,9.70555
49.55300,106.09196,9.90027
49.57500,106.22565,10.28335
49.58700,106.28008,10.48797
49.60900,106.44616,10.73217
49.62100,106.55050,10.76460
49.64300,106.83440,10.71650
49.65500,107.05780,10.61529
49.67700,107.40849,10.20791
49.69900,107.68845,9.64923
49.71100,107.93559,9.25807
49.73300,108.59226,8.26976
49.74500,108.83630,7.66955
49.76700,109.30177,6.60322
49.77900,109.52802,5.93776
49.80100,109.91370,4.55050
49.82300,110.04047,2.92347
49.83500,110.06202,2.06939
49.85700,109.79841,0.67002
49.86900,109.52011,0.02119
49.89100,108.82743,-1.22424
49.90300,108.45616,-1.92595
49.92500,107.66642,-3.57729
49.93729,107.07233,-4.65754
49.96000,105.74541,-6.91508
49.98200,104.68080,-8.90488
49.99400,103.89004,-9.97459
50.01600,101.37502,-11.20791
50.02800,100.26093,-11.76759
50.05000,98.58049,-12.40254
50.06200,97.82309,-12.84461
50.08400,96.61973,-13.76485
50.09600,95.84495,-14.34428
50.11800,94.44322,-15.44471
50.14000,92.68827,-16.18545
50.15200,91.87689,-16.43468
50.17400,90.33677,-16.98166
50.18600,89.52952,-17.29380
50.20800,87.77181,-17.93701
50.22000,86.71581,-18.33686
50.24200,84.79420,-19.04498
50.26400,82.54205,-19.73226
50.27600,81.24538,-20.12536
50.29800,78.63845,-20.86328
50.31000,77.30030,-21.25083
50.33200,74.75122,-22.02332
50.34400,73.35336,-22.40349
50.36600,70.14390,-23.78632
50.38800,67.48981,-24.85479
50.40000,66.31808,-25.29113
50.42200,63.91603,-25.70025
50.43400,62.47793,-25.91161
50.45600,59.82379,-26.99924
50.46800,57.68730,-27.74710
50.49000,54.96355,-28.80169
50.50200,53.75554,-29.52038
50.52400,51.01578,-30.86143
50.54600,48.01474,-31.53457
50.55800,46.39695,-31.75204
50.58000,43.88637,-31.90945
50.59200,42.63278,-31.85343
50.61400,40.16226,-31.93528
50.63600,37.70678,-31.42702
50.64800,36.35939,-31.28003
50.67000,34.01603,-31.21330
50.68200,32.92475,-31.25113
50.70400,31.43072,-31.76151
50.71600,30.81214,-32.51939
50.73800,29.77066,-33.96878
50.75000,29.27183,-34.61361
50.77200,28.42335,-35.59729
50.79900,27.31051,-36.87883
50.81100,26.84638,-37.70145
50.82300,26.30942,-38.47536
50.84500,24.55813,-39.69282
50.85700,23.45373,-40.35155
50.87900,20.62764,-40.51188
50.89100,18.86679,-40.72021
50.91300,16.73745,-42.09447
50.93500,15.06491,-43.86700
50.94700,14.21623,-44.79120
50.96900,12.93133,-46.23818
50.98100,12.59518,-46.67888
51.00300,11.96476,-46.49809
51.01500,11.44728,-46.25965
51.03700,10.43417,-46.00182
51.04900,9.90097,-46.05816
51.07100,8.89619,-46.42129
51.09300,8.15276,-46.33806
51.10500,7.72951,-46.05822
51.12700,6.69497,-44.82023
51.13900,6.06592,-44.15786
51.16100,4.55212,-42.84019
51.17300,2.47172,-39.80198
51.19500,2.49665,-38.50485
51.21700,2.40017,-36.84805
51.22900,2.47517,-36.19302
51.25100,2.19448,-34.48178
51.26300,2.13275,-33.57596
51.28500,1.93095,-31.72721
51.29700,1.75381,-30.64814
51.31900,1.30558,-28.39541
51.33100,1.32399,-26.33570
51.35300,1.58520,-23.96555
51.37500,1.79041,-21.48914
51.38700,1.97756,-20.54156
51.40900,2.36919,-18.33200
51.42100,2.96178,-17.16862
51.44300,4.02981,-15.66980
51.45500,4.33569,-15.06526
51.47700,4.50284,-11.09698
51.49900,1.62283,1.67866
51.51100,0.33919,5.12548
51.53300,0.08176,6.00105
51.54500,0.07927,5.95867
51.56700,0.05608,5.90571
51.57900,0.04455,5.86899
51.60100,0.01042,5.85253
51.62300,0.09596,6.36368
51.63500,0.07094,6.26610
51.65700,-0.19486,4.96096
51.66900,-0.20603,4.90773
51.69100,-0.15227,4.65368
51.70300,-0.17569,4.69166
51.72500,-0.20798,4.74448
51.73700,-0.22628,4.76905
51.75900,-0.23051,4.71401
51.78100,-0.23641,4.64220
51.79300,-0.24210,4.61564
51.81500,-0.24654,4.56117
51.82700,-0.25302,4.53184
51.84900,-0.26052,4.48241
51.86100,-0.26794,4.45128
51.88300,-0.27797,4.40721
51.90500,-0.29118,4.35679
51.91700,-0.29618,4.33380
51.93900,-0.31305,4.28204
51.95100,-0.32015,4.25617
51.97300,-0.33579,4.21289
51.98500,-0.34616,4.18622
52.00700,-0.36249,4.14057
52.02900,-0.37420,4.09796
52.04100,-0.38004,4.07198
52.06300,-0.39527,4.02804
52.07500,-0.40554,4.00334
52.09700,-0.41333,3.96315
52.10900,-0.41556,3.93991
52.13100,-0.41971,3.89789
52.14300,-0.42429,3.87770
52.16500,-0.42935,3.84024
52.18700,-0.43361,3.78740
52.19900,-0.43330,3.74539
52.22100,-0.44825,3.70410
52.23300,-0.45855,3.68008
52.25500,-0.46689,3.63927
52.26700,-0.46740,3.61324
52.28900,-0.47902,3.57342
52.31100,-0.48411,3.53108
52.32300,-0.49199,3.50750
52.34500,-0.49799,3.46977
52.35700,-0.50156,3.44526
52.37900,-0.51044,3.40490
52.39100,-0.51718,3.38516
52.41300,-0.53036,3.34463
52.43500,-0.53810,3.29910
52.44700,-0.53909,3.28104
52.46900,-0.55256,3.24781
52.48100,-0.56234,3.22698
52.50300,-0.57103,3.18894
52.51500,-0.57638,3.17162
52.53700,-0.59134,3.13707
52.54900,-0.59795,3.11747
52.57100,-0.60534,3.08708
52.59300,-0.61219,3.04615
52.60500,-0.61633,3.03119
52.62700,-0.62379,3.00109
52.63900,-0.62531,2.98002
52.66100,-0.63495,2.95384
52.67300,-0.63606,2.93449
52.69500,-0.64703,2.89129
52.71700,-0.66011,2.85604
52.72900,-0.66816,2.84006
52.75100,-0.68069,2.80854
52.76300,-0.68598,2.78819
52.78500,-0.69144,2.75649
52.80200,-0.69388,2.73225
52.81400,-0.69962,2.71130
52.83600,-0.70783,2.68460
52.85800,-0.71907,2.65053
52.87000,-0.72370,2.63546
52.89200,-0.72767,2.59888
52.90400,-0.73024,2.57902
52.92600,-0.73713,2.54812
