Time,Phi (degrees),Theta (degrees)
0.0,0.51,-0.501
0.021999999999934516,0.507,-0.538
0.03400000000056025,0.698,-0.525
0.056000000000494765,0.688,-0.563
0.07800000000042928,0.645,-0.708
0.09000000000014552,0.847,-0.533
0.11200000000008004,0.924,-0.627
0.12399999999979627,0.802,-0.756
0.14600000000064028,0.72,-0.822
0.15800000000035652,0.707,-0.534
0.18000000000029104,0.786,-0.441
0.20200000000022555,0.671,-0.548
0.2139999999999418,0.738,-0.488
0.2359999999998763,0.723,-0.594
0.24800000000050204,0.674,-0.473
0.27000000000043656,0.816,-0.46
0.2820000000001528,0.93,-0.727
0.3040000000000873,0.787,-0.574
0.32600000000002183,0.737,-0.8
0.33800000000064756,0.84,-0.704
0.3600000000005821,0.651,-0.617
0.3720000000002983,0.655,-0.617
0.39400000000023283,0.607,-0.517
0.40599999999994907,0.78,-0.518
0.4279999999998836,0.854,-0.746
0.4400000000005093,0.726,-0.66
0.46200000000044383,0.819,-0.769
0.48400000000037835,0.573,-0.709
0.4960000000000946,0.439,-0.645
0.5180000000000291,0.649,-0.593
0.5300000000006548,0.848,-0.632
0.5520000000005894,0.882,-0.511
0.5640000000003056,0.862,-0.628
0.5860000000002401,0.896,-0.62
0.6080000000001746,0.826,-0.756
0.6199999999998909,0.938,-0.518
0.6419999999998254,1.043,-0.366
0.6540000000004511,0.863,-0.588
0.6760000000003856,0.75,-0.553
0.6880000000001019,0.806,-0.432
0.7100000000000364,0.833,-0.512
0.7319999999999709,0.843,-0.697
0.7489980000000287,0.781,-0.589
0.761000000000422,0.712,-0.649
0.7830000000003565,0.686,-0.722
0.7950000000000728,0.582,-0.538
0.8170000000000073,0.782,-0.639
0.829000000000633,0.782,-0.507
0.8510000000005675,0.722,-0.687
0.873000000000502,0.748,-0.413
0.8850000000002183,0.683,-0.649
0.9070000000001528,0.873,-0.613
0.918999999999869,0.833,-0.675
0.9409999999998035,0.716,-0.674
0.9530000000004293,0.596,-0.521
0.9750000000003638,0.592,-0.658
0.98700000000008,0.733,-0.445
1.0090000000000146,0.849,-0.518
1.030999999999949,0.849,-0.596
1.0430000000005748,0.758,-0.68
1.0650000000005093,0.833,-0.454
1.0770000000002256,0.819,-0.538
1.09900000000016,0.65,-0.475
1.1109999999998763,0.594,-0.46
1.1329999999998108,0.704,-0.654
1.1550000000006548,0.822,-0.572
1.167000000000371,0.592,-0.779
1.1890000000003056,0.632,-0.696
1.2010000000000218,0.725,-0.451
1.2229999999999563,0.761,-0.46
1.235000000000582,0.814,-0.572
1.2570000000005166,0.899,-0.601
1.279000000000451,0.637,-0.704
1.2910000000001673,0.812,-0.582
1.3130000000001019,0.749,-0.441
1.324999999999818,0.81,-0.634
1.3469999999997526,0.886,-0.666
1.3590000000003783,1.01,-0.551
1.3810000000003129,0.867,-0.625
1.393000000000029,0.721,-0.647
1.4149999999999636,0.753,-0.829
1.4369999999998981,0.656,-0.662
1.4490000000005239,0.681,-0.582
1.4710000000004584,0.742,-0.697
1.4830000000001746,0.614,-0.641
1.5050000000001091,0.744,-0.472
1.5169999999998254,0.749,-0.535
1.53899999999976,0.717,-0.816
1.561000000000604,0.849,-0.564
1.5730000000003201,0.595,-0.427
1.5950000000002547,0.726,-0.577
1.606999999999971,0.75,-0.541
1.6289999999999054,0.771,-0.581
1.6410000000005311,0.788,-0.356
1.6630000000004657,0.68,-0.508
1.675000000000182,0.657,-0.669
1.6970000000001164,0.956,-0.62
1.719000000000051,0.866,-0.473
1.7309999999997672,0.752,-0.577
1.7530000000006112,0.82,-0.618
1.7650000000003274,0.899,-0.617
1.787000000000262,0.622,-0.576
1.7989999999999782,0.693,-0.77
1.8209999999999127,0.885,-0.684
1.8429999999998472,-0.045,8.971
1.855000000000473,-27.738,7.018
1.8770000000004075,-6.218,-4.763
1.8890000000001237,-3.154,2.808
1.9110000000000582,1.581,-8.503
1.9229999999997744,-2.231,-3.395
1.9450000000006185,-2.71,-3.563
1.967000000000553,-3.276,3.591
1.9790000000002692,-3.928,8.613
2.0010000000002037,-1.112,5.868
2.01299999999992,0.433,6.998
2.0349999999998545,-1.552,14.3
2.04700000000048,-0.412,20.836
2.0690000000004147,1.623,15.605
2.0910000000003492,3.982,13.453
2.1030000000000655,7.697,8.052
2.125,7.437,4.735
2.1370000000006257,7.974,3.975
2.1590000000005602,9.511,2.43
2.1710000000002765,11.681,6.071
2.193000000000211,11.832,5.177
2.2049999999999272,12.913,8.627
2.2269999999998618,12.63,9.004
2.2489999999997963,13.751,6.897
2.261000000000422,13.85,5.626
2.2830000000003565,15.312,8.973
2.2950000000000728,16.938,9.942
2.3170000000000073,18.148,11.766
2.329000000000633,15.174,18.383
2.3510000000005675,21.817,17.876
2.3630000000002838,22.268,11.484
2.3850000000002183,23.81,6.224
2.407000000000153,25.764,10.194
2.418999999999869,27.067,8.749
2.4409999999998035,32.588,0.169
2.4530000000004293,29.768,9.198
2.475000000000364,33.079,6.615
2.48700000000008,37.341,3.576
2.5090000000000146,19.703,5.989
2.530999999999949,30.613,5.839
2.543000000000575,34.391,-12.245
2.5650000000005093,40.349,-3.171
2.5770000000002256,41.632,-3.981
2.59900000000016,44.093,-4.516
2.6109999999998763,44.832,4.405
2.632999999999811,45.996,-8.745
2.655000000000655,48.353,-8.033
2.667000000000371,50.806,-2.787
2.6890000000003056,52.877,-2.808
2.701000000000022,51.831,-4.417
2.7229999999999563,50.589,2.035
2.735000000000582,56.865,-1.172
2.75199800000064,60.029,-3.523
2.774000000000342,56.717,-0.423
2.7960000000002765,59.186,1.464
2.8079999999999927,58.64,0.153
2.8299999999999272,63.929,-3.228
2.842000000000553,62.889,-6.554
2.8640000000004875,61.918,-8.324
2.8760000000002037,63.007,-8.683
2.8980000000001382,67.417,-6.624
2.9099999999998545,65.991,-7.153
2.931999999999789,66.242,-9.192
2.954000000000633,66.778,-12.412
2.9660000000003492,66.775,-9.563
2.9880000000002838,65.514,-11.585
3.0,65.882,-12.683
3.0219999999999345,66.614,-9.122
3.0340000000005602,69.351,-11.79
3.0560000000004948,68.124,-16.654
3.0780000000004293,68.436,-17.482
3.0900000000001455,68.303,-14.794
3.11200000000008,69.285,-15.325
3.1239999999997963,69.478,-14.688
3.1460000000006403,70.904,-9.693
3.1580000000003565,70.769,-3.964
3.180000000000291,69.015,-2.088
3.2020000000002256,66.454,-4.568
3.213999999999942,65.868,-7.343
3.2359999999998763,67.26,-9.105
3.248000000000502,69.462,-9.673
3.2700000000004366,71.183,-7.851
3.282000000000153,72.147,-8.43
3.3040000000000873,70.292,-8.142
3.3159999999998035,68.797,-10.038
3.3380000000006476,66.521,-12.842
3.360000000000582,67.855,-13.285
3.3720000000002983,68.735,-12.851
3.394000000000233,68.683,-13.237
3.405999999999949,65.754,-13.107
3.4279999999998836,66.981,-12.465
3.4400000000005093,67.529,-14.116
3.462000000000444,67.495,-14.143
3.4840000000003783,65.165,-15.414
3.4960000000000946,65.842,-15.251
3.518000000000029,67.458,-16.173
3.530000000000655,68.693,-15.596
3.5520000000005894,73.613,-13.347
3.5640000000003056,70.212,-14.555
3.58600000000024,68.815,-16.223
3.6080000000001746,68.372,-16.563
3.619999999999891,69.655,-15.748
3.6419999999998254,72.104,-12.481
3.654000000000451,71.252,-13.868
3.6760000000003856,70.517,-12.069
3.688000000000102,68.933,-14.026
3.7100000000000364,65.258,-18.831
3.7219999999997526,63.936,-19.741
3.7440000000005966,65.846,-17.387
3.766000000000531,69.471,-13.044
3.7780000000002474,73.497,-11.543
3.800000000000182,73.658,-12.873
3.811999999999898,72.067,-12.714
3.8339999999998327,69.494,-12.517
3.8460000000004584,70.667,-14.104
3.868000000000393,70.403,-16.027
3.8900000000003274,69.66,-14.957
3.9020000000000437,66.597,-14.807
3.923999999999978,67.848,-13.831
3.936000000000604,63.678,-17.876
3.9580000000005384,59.783,-20.712
3.9700000000002547,58.735,-21.256
3.992000000000189,59.22,-21.973
4.014000000000124,63.543,-19.058
4.02599999999984,65.106,-18.256
4.0479999999997744,61.897,-20.678
4.0600000000004,60.527,-19.799
4.082000000000335,60.486,-18.889
4.094000000000051,59.785,-19.896
4.1159999999999854,61.024,-20.736
4.128000000000611,59.863,-20.403
4.150000000000546,60.481,-18.755
4.17200000000048,62.512,-17.042
4.1840000000001965,64.397,-17.832
4.206000000000131,63.579,-17.239
4.217999999999847,59.433,-19.791
4.239999999999782,60.091,-18.975
4.2520000000004075,59.684,-20.377
4.274000000000342,57.787,-21.275
4.2960000000002765,57.747,-22.225
4.307999999999993,57.327,-23.628
4.329999999999927,56.102,-23.018
4.342000000000553,56.082,-23.521
4.3640000000004875,55.569,-23.342
4.376000000000204,56.105,-24.395
4.398000000000138,56.762,-24.647
4.410291000000143,55.591,-24.185
4.431999999999789,56.114,-23.896
4.454000000000633,56.391,-22.719
4.466000000000349,55.931,-23.189
4.488000000000284,57.582,-21.854
4.5,59.247,-20.402
4.5219999999999345,60.472,-19.997
4.53400000000056,59.805,-19.952
4.556000000000495,58.61,-22.037
4.578000000000429,58.229,-21.568
4.5900000000001455,58.251,-22.431
4.61200000000008,56.967,-23.987
4.623999999999796,57.165,-25.009
4.64600000000064,56.554,-26.808
4.6580000000003565,56.661,-25.7
4.680000000000291,58.175,-22.938
4.7020000000002256,58.436,-22.907
4.713999999999942,59.471,-21.494
4.735999999999876,61.529,-21.67
4.752997999999934,62.366,-21.58
4.765000000000327,63.318,-18.752
4.787000000000262,65.367,-17.401
4.798999999999978,67.596,-16.706
4.820999999999913,68.089,-15.426
4.842999999999847,67.685,-14.687
4.855000000000473,68.885,-15.87
4.8770000000004075,68.291,-14.72
4.889000000000124,67.775,-13.313
4.911000000000058,68.229,-11.709
4.9229999999997744,71.934,-13.005
4.9450000000006185,72.073,-14.867
4.967000000000553,68.394,-14.331
4.979000000000269,67.953,-13.983
5.001000000000204,68.894,-14.865
5.01299999999992,68.83,-16.674
5.0349999999998545,69.729,-17.022
5.04700000000048,71.673,-15.22
5.069000000000415,72.125,-12.369
5.081000000000131,70.83,-12.052
5.1030000000000655,72.218,-13.839
5.125,73.463,-13.648
5.137000000000626,74.938,-11.481
5.15900000000056,74.218,-11.946
5.1710000000002765,73.901,-11.021
5.193000000000211,71.434,-12.099
5.204999999999927,70.032,-10.304
5.226999999999862,70.19,-9.015
5.248999999999796,73.47,-10.318
5.261000000000422,76.519,-10.388
5.2830000000003565,77.314,-9.719
5.295000000000073,72.312,-10.592
5.317000000000007,73.401,-10.704
5.329000000000633,70.955,-9.519
5.3510000000005675,73.921,-9.67
5.363000000000284,72.987,-10.248
5.385000000000218,75.114,-8.533
5.407000000000153,77.268,-7.034
5.418999999999869,77.87,-5.964
5.4409999999998035,80.589,-3.807
5.453000000000429,79.515,-2.812
5.475000000000364,78.064,-3.557
5.48700000000008,79.176,-1.605
5.5090000000000146,76.878,-1.649
5.530999999999949,79.024,-4.199
5.543000000000575,77.937,-3.75
5.565000000000509,79.509,-3.348
5.5770000000002256,79.585,-2.524
5.59900000000016,78.868,-3.491
5.610999999999876,78.897,-4.254
5.632999999999811,78.538,-3.489
5.655000000000655,79.087,-2.262
5.667000000000371,81.848,-1.121
5.689000000000306,77.726,-2.446
5.701000000000022,77.061,-0.763
5.722999999999956,79.277,-0.699
5.735000000000582,84.689,-0.71
5.757000000000517,82.483,-0.276
5.769000000000233,82.174,0.176
5.791000000000167,84.133,0.012
5.813000000000102,79.949,-0.759
5.824999999999818,81.65,0.744
5.846999999999753,82.442,1.803
5.859000000000378,81.97,2.858
5.881000000000313,83.064,2.689
5.893000000000029,83.815,0.012
5.914999999999964,83.192,0.103
5.936999999999898,82.526,1.819
5.949000000000524,85.139,1.573
5.971000000000458,85.438,2.302
5.983000000000175,83.673,2.161
6.005000000000109,82.717,2.458
6.016999999999825,82.438,3.409
6.03899999999976,82.414,3.597
6.061000000000604,80.947,5.449
6.07300000000032,81.185,6.113
6.095000000000255,82.262,6.277
6.106999999999971,82.771,5.741
6.128999999999905,80.729,7.577
6.141000000000531,83.545,5.911
6.163000000000466,81.92,6.51
6.175000000000182,81.128,6.646
6.197000000000116,82.055,6.531
6.219000000000051,81.84,6.287
6.230999999999767,82.262,5.629
6.253000000000611,81.593,5.931
6.265000000000327,82.548,4.354
6.287000000000262,84.357,3.844
6.298999999999978,85.88,2.777
6.320999999999913,82.882,3.325
6.342999999999847,84.065,3.157
6.355000000000473,80.877,6.337
6.3770000000004075,82.507,5.537
6.389000000000124,82.231,5.517
6.411000000000058,80.802,5.639
6.4229999999997744,81.096,6.467
6.4450000000006185,80.836,8.046
6.457000000000335,78.69,8.628
6.479000000000269,80.598,8.391
6.501000000000204,79.4,9.306
6.51299999999992,78.98,10.599
6.5349999999998545,77.968,11.483
6.54700000000048,80.038,9.594
6.569000000000415,77.001,12.529
6.581000000000131,75.216,9.098
6.6030000000000655,74.433,12.948
6.625,75.111,10.784
6.637000000000626,78.903,9.118
6.65900000000056,78.422,10.16
6.6710000000002765,78.464,10.832
6.693000000000211,77.856,10.922
6.704999999999927,74.475,14.646
6.726999999999862,78.362,11.231
6.753998000000138,77.434,12.547
6.766000000000531,75.255,14.581
6.778000000000247,75.963,12.435
6.800000000000182,76.912,12.583
6.811999999999898,76.156,13.098
6.833999999999833,75.443,13.817
6.846000000000458,74.829,14.755
6.868000000000393,74.253,15.37
6.890000000000327,73.536,15.637
6.902000000000044,73.818,15.675
6.923999999999978,74.04,15.339
6.936000000000604,73.255,16.497
6.958000000000538,74.148,15.732
6.970000000000255,74.083,15.88
6.992000000000189,73.546,16.259
7.014000000000124,74.431,15.376
7.02599999999984,74.58,15.246
7.0479999999997744,75.407,14.354
7.0600000000004,74.76,15.193
7.082000000000335,70.801,19.251
7.094000000000051,69.087,20.897
7.1159999999999854,70.844,19.144
7.128000000000611,72.52,17.347
7.150000000000546,75.618,14.214
7.17200000000048,76.083,13.309
7.1840000000001965,75.055,14.752
7.206000000000131,75.196,14.796
7.217999999999847,73.453,15.731
7.239999999999782,73.784,15.961
7.2520000000004075,73.667,15.871
7.274000000000342,74.416,15.453
7.2960000000002765,74.596,14.676
7.307999999999993,74.73,14.959
7.329999999999927,74.597,15.338
7.342000000000553,73.099,15.575
7.3640000000004875,74.995,14.048
7.376000000000204,74.79,14.765
7.398000000000138,74.523,14.897
7.4099999999998545,74.685,14.901
7.431999999999789,72.867,16.784
7.454000000000633,73.239,16.521
7.466000000000349,71.903,17.954
7.488000000000284,70.114,19.713
7.5,69.491,20.451
7.5219999999999345,69.476,20.519
7.53400000000056,69.471,20.392
7.556000000000495,70.145,19.745
7.578000000000429,71.64,18.364
7.5900000000001455,71.783,18.212
7.61200000000008,71.414,17.433
7.623999999999796,71.866,17.207
7.64600000000064,71.426,17.354
7.6580000000003565,70.817,18.74
7.680000000000291,70.831,18.558
7.7020000000002256,70.638,19.044
7.713999999999942,70.475,19.231
7.735999999999876,70.924,18.926
7.748000000000502,71.952,17.952
7.770000000000437,70.407,19.563
7.782000000000153,71.443,18.423
7.804000000000087,71.674,18.298
7.8159999999998035,72.456,17.491
7.838000000000648,73.649,16.364
7.860000000000582,72.598,16.818
7.872000000000298,72.209,16.566
7.894000000000233,72.204,17.34
7.905999999999949,74.736,14.939
7.927999999999884,73.251,15.883
7.940000000000509,73.349,16.27
7.962000000000444,73.783,16.022
7.984000000000378,73.303,16.475
7.996000000000095,72.182,17.153
8.018000000000029,72.268,17.107
8.030000000000655,71.048,18.514
8.05200000000059,71.192,18.67
8.064000000000306,71.295,18.109
8.08600000000024,72.314,16.842
8.108000000000175,73.303,15.84
8.11999999999989,73.362,16.269
8.141999999999825,72.259,17.168
8.154000000000451,73.342,16.123
8.176000000000386,72.528,17.002
8.188000000000102,71.272,18.527
8.210000000000036,70.104,19.574
8.221999999999753,70.915,18.371
8.244000000000597,71.366,18.019
8.266000000000531,71.705,17.253
8.278000000000247,72.374,16.935
8.300000000000182,70.901,18.566
8.311999999999898,71.385,18.35
8.333999999999833,69.871,19.801
8.346000000000458,69.276,20.407
8.368000000000393,70.313,19.575
8.390000000000327,72.256,16.958
8.402000000000044,73.879,14.878
8.423999999999978,73.517,16.002
8.436000000000604,73.466,16.353
8.458000000000538,72.594,17.025
8.470000000000255,73.5,16.303
8.49200000000019,73.851,15.938
8.514000000000124,72.068,17.646
8.52599999999984,71.162,18.738
8.547999999999774,68.622,21.358
8.5600000000004,68.812,21.139
8.582000000000335,71.787,17.999
8.594000000000051,74.15,15.624
8.615999999999985,75.75,13.947
8.628000000000611,76.781,13.111
8.650000000000546,79.302,10.529
8.67200000000048,78.893,11.042
8.684000000000196,77.558,12.094
8.706000000000131,78.956,9.875
8.717999999999847,79.808,7.882
8.739999999999782,77.458,9.171
8.75699799999984,77.917,9.603
8.769000000000233,75.7,11.943
8.791000000000167,75.319,12.44
8.813000000000102,76.412,11.192
8.824999999999818,75.83,11.321
8.846999999999753,77.793,9.99
8.859000000000378,75.842,12.72
8.881000000000313,73.636,15.551
8.893000000000029,71.194,18.491
8.914999999999964,71.655,18.156
8.936999999999898,75.519,13.687
8.949000000000524,81.171,3.614
8.971000000000458,78.543,-1.957
8.983000000000175,78.142,-2.873
9.00500000000011,78.632,-1.173
9.016999999999825,78.92,2.341
9.03899999999976,81.799,3.192
9.051000000000386,78.693,3.806
9.07300000000032,78.49,4.144
9.095000000000255,77.853,4.548
9.106999999999971,78.026,3.172
9.128999999999905,77.361,4.248
9.141000000000531,76.872,3.091
9.163000000000466,77.079,3.377
9.175000000000182,75.725,2.172
9.197000000000116,75.531,0.7
9.219000000000051,74.804,-1.27
9.230999999999767,74.349,-2.543
9.253000000000611,75.189,-0.675
9.265000000000327,76.505,-2.606
9.287000000000262,74.359,-4.239
9.298999999999978,77.764,-4.271
9.320999999999913,76.324,-5.762
9.342999999999847,71.585,-8.704
9.355000000000473,69.557,-6.239
9.377000000000407,60.048,-4.277
9.389000000000124,62.525,-16.02
9.411000000000058,63.359,-14.003
9.422999999999774,64.374,-11.464
9.445000000000618,63.58,-16.364
9.457000000000335,60.919,-13.183
9.47900000000027,66.542,-16.681
9.501000000000204,61.071,-20.202
9.51299999999992,61.326,-19.131
9.534999999999854,60.265,-18.917
9.54700000000048,64.15,-19.736
9.569000000000415,62.86,-17.966
9.581000000000131,56.908,-23.398
9.603000000000065,57.588,-24.3
9.625,60.094,-22.408
9.637000000000626,58.695,-21.078
9.65900000000056,64.301,-4.31
9.671000000000276,56.893,-24.416
9.693000000000211,59.795,-24.576
9.704999999999927,63.654,-22.935
9.726999999999862,59.31,-20.992
9.748999999999796,55.602,-26.045
9.761000000000422,56.175,-21.796
9.783000000000357,51.587,-23.886
9.795000000000073,45.927,-33.745
9.817000000000007,53.124,-31.012
9.829000000000633,56.362,-29.417
9.851000000000568,59.439,-28.678
9.863000000000284,59.573,-27.373
9.885000000000218,56.888,-29.859
9.907000000000153,49.924,-37.051
9.918999999999869,42.927,-44.58
9.940999999999804,40.648,-45.117
9.95300000000043,37.461,-43.203
9.975000000000364,36.204,-47.726
9.98700000000008,32.577,-49.921
10.009000000000015,32.294,-49.011
10.030999999999949,33.541,-47.205
10.043000000000575,34.001,-50.065
10.06500000000051,33.506,-51.683
10.077000000000226,29.622,-53.365
10.09900000000016,23.434,-59.31
10.110999999999876,20.405,-60.845
10.13299999999981,19.582,-61.001
10.145285000000513,18.114,-62.242
10.167000000000371,14.566,-68.013
10.189000000000306,10.928,-73.642
10.201000000000022,8.271,-78.053
10.222999999999956,6.511,-77.305
10.235000000000582,5.01,-77.782
10.257000000000517,4.544,-75.817
10.269000000000233,4.814,-75.096
10.291000000000167,2.827,-81.15
10.313000000000102,0.841,-81.181
10.324999999999818,0.197,-78.56
10.346999999999753,-1.465,-79.888
10.359000000000378,-1.569,-76.368
10.381000000000313,-3.266,-79.636
10.393000000000029,-1.815,-81.931
10.414999999999964,-4.736,-81.024
10.436999999999898,-4.289,-79.307
10.449000000000524,-3.805,-79.517
10.471000000000458,-2.619,-76.055
10.483000000000175,-4.925,-78.753
10.50500000000011,-7.721,-80.454
10.516999999999825,-6.196,-83.355
10.53899999999976,-5.945,-84.51
10.551000000000386,-4.832,-84.889
10.57300000000032,-6.385,-74.633
10.595000000000255,-6.071,-79.461
10.606999999999971,-6.7,-80.318
10.628999999999905,-5.545,-83.949
10.641000000000531,-4.047,-84.637
10.663000000000466,-3.622,-85.539
10.675000000000182,-4.817,-84.427
10.697000000000116,-5.529,-84.579
10.719000000000051,-4.857,-84.223
10.730999999999767,-5.093,-84.525
10.757998000000043,-3.715,-86.777
10.770000000000437,-5.58,-79.974
10.782000000000153,-4.71,-80.009
10.804000000000087,-4.492,-78.48
10.815999999999804,-6.158,-71.693
10.838000000000648,-5.706,-75.45
10.860000000000582,-4.912,-76.989
10.872000000000298,-1.41,-84.328
10.894000000000233,-2.285,-85.594
10.905999999999949,-5.25,-72.66
10.927999999999884,-5.205,-72.364
10.94000000000051,-6.612,-68.566
10.962000000000444,-6.076,-70.713
10.984000000000378,-5.702,-71.775
10.996000000000095,-5.903,-72.121
11.018000000000029,-5.908,-68.906
11.030000000000655,-7.088,-63.156
11.05200000000059,-7.956,-60.951
11.064000000000306,-8.124,-59.997
11.08600000000024,-7.767,-59.5
11.097999999999956,-7.593,-57.683
11.11999999999989,-7.441,-57.059
11.141999999999825,-8.283,-54.115
11.154000000000451,-8.02,-53.541
11.176000000000386,-7.185,-55.115
11.188000000000102,-5.945,-57.657
11.210000000000036,-4.878,-58.232
11.221999999999753,-4.803,-55.561
11.244000000000597,-4.612,-53.704
11.266000000000531,-4.792,-54.374
11.278000000000247,-5.148,-56.115
11.300000000000182,-5.582,-54.361
11.311999999999898,-5.902,-51.638
11.333999999999833,-5.712,-51.253
11.346000000000458,-6.128,-51.647
11.368000000000393,-6.688,-50.328
11.390000000000327,-6.146,-51.053
11.402000000000044,-5.737,-48.444
11.423999999999978,-6.052,-45.759
11.436000000000604,-5.805,-44.714
11.458000000000538,-5.682,-46.727
11.470000000000255,-4.864,-48.692
11.49200000000019,-4.056,-45.172
11.503999999999905,-3.663,-40.138
11.52599999999984,-3.234,-37.374
11.547999999999774,-2.177,-39.077
11.5600000000004,-0.774,-37.415
11.582000000000335,0.651,-33.627
11.594000000000051,3.184,-26.057
11.615999999999985,0.166,-19.653
11.628000000000611,0.473,-12.73
11.650000000000546,1.19,-6.044
11.67200000000048,6.808,-5.15
11.684000000000196,9.245,-11.279
11.706000000000131,8.787,-9.775
11.717999999999847,13.291,-17.97
11.739999999999782,9.447,-17.077
11.752000000000407,8.364,-21.18
11.774000000000342,6.604,-22.259
11.796000000000276,7.787,-27.849
11.807999999999993,7.937,-29.549
11.829999999999927,8.4,-28.979
11.842000000000553,7.076,-25.645
11.864000000000487,7.171,-20.608
11.876000000000204,6.457,-18.454
11.898000000000138,7.022,-15.824
11.920000000000073,5.559,-13.37
11.931999999999789,5.268,-11.385
11.954000000000633,6.146,-8.934
11.96600000000035,4.678,-4.187
11.988000000000284,3.26,-0.558
12.0,3.98,0.781
12.021999999999935,4.599,3.436
12.03400000000056,5.287,5.313
12.056000000000495,7.175,8.042
12.07800000000043,5.892,6.546
12.090000000000146,5.354,4.368
12.11200000000008,7.46,2.743
12.123999999999796,6.705,2.149
12.14600000000064,8.059,2.737
12.158000000000357,7.208,7.232
12.180000000000291,6.42,9.171
12.192000000000007,6.332,10.538
12.213999999999942,6.912,13.428
12.235999999999876,3.951,16.886
12.248000000000502,3.857,21.99
12.270000000000437,3.995,25.581
12.282000000000153,4.84,30.638
12.304000000000087,3.949,33.854
12.315999999999804,2.738,35.534
12.338000000000648,2.773,36.584
12.360000000000582,3.511,37.315
12.372000000000298,3.457,34.809
12.394000000000233,4.375,34.641
12.405999999999949,4.408,35.717
12.427999999999884,4.756,38.693
12.44000000000051,4.432,41.783
12.462000000000444,3.25,43.378
12.484000000000378,3.575,42.383
12.496000000000095,4.479,42.277
12.518000000000029,3.267,47.319
12.530000000000655,3.633,50.138
12.55200000000059,4.143,49.547
12.564000000000306,4.208,51.811
12.58600000000024,3.246,54.587
12.597999999999956,3.484,55.65
12.61999999999989,2.325,53.877
12.641999999999825,3.002,54.995
12.654000000000451,0.481,55.394
12.676000000000386,0.916,57.931
12.688000000000102,1.172,57.671
12.710000000000036,0.286,59.389
12.721999999999753,-0.308,60.845
12.744000000000597,0.009,61.596
12.760998000000654,0.552,63.912
12.783000000000357,-0.258,64.561
12.795000000000073,1.12,64.935
12.817000000000007,0.341,64.312
12.829000000000633,-0.943,65.028
12.851000000000568,-1.52,64.893
12.863000000000284,-0.624,63.816
12.885000000000218,0.536,62.275
12.907000000000153,0.121,60.474
12.918999999999869,0.694,61.759
12.940999999999804,1.156,63.082
12.95300000000043,1.765,61.5
12.975000000000364,0.589,60.457
12.98700000000008,1.825,58.606
13.009000000000015,1.015,59.933
13.030999999999949,1.281,58.338
13.043000000000575,0.119,58.963
13.06500000000051,1.499,62.43
13.077000000000226,0.617,63.327
13.09900000000016,-0.514,61.414
13.110999999999876,-0.664,61.564
13.13299999999981,0.134,61.294
13.155000000000655,-0.096,61.499
13.167000000000371,1.348,60.972
13.189000000000306,1.339,56.501
13.201000000000022,2.215,55.938
13.222999999999956,1.494,49.622
13.235000000000582,3.443,45.268
13.257000000000517,4.642,41.401
13.269000000000233,5.934,39.984
13.291000000000167,4.481,39.857
13.313000000000102,6.004,40.619
13.324999999999818,5.889,34.222
13.346999999999753,6.739,28.946
13.359000000000378,7.084,24.007
13.381000000000313,8.664,17.858
13.393000000000029,10.613,14.887
13.414999999999964,12.607,13.052
13.436999999999898,9.798,11.71
13.449000000000524,8.609,9.039
13.471000000000458,10.066,6.114
13.483000000000175,8.385,3.334
13.50500000000011,9.942,-3.279
13.516999999999825,8.354,-8.437
13.53899999999976,14.266,-11.129
13.551000000000386,13.287,-10.77
13.57300000000032,14.238,-15.5
13.595000000000255,12.363,-18.319
13.606999999999971,13.748,-18.662
13.628999999999905,14.715,-23.644
13.641000000000531,13.168,-23.873
13.663000000000466,14.325,-27.379
13.675000000000182,12.065,-28.298
13.697000000000116,13.931,-29.864
13.719000000000051,13.208,-31.147
13.730999999999767,14.311,-34.568
13.753000000000611,13.062,-34.451
13.765000000000327,12.467,-35.691
13.787000000000262,13.088,-36.561
13.798999999999978,12.555,-36.633
13.820999999999913,11.467,-38.966
13.833285000000615,14.739,-45.559
13.855000000000473,14.184,-45.449
13.877000000000407,14.262,-47.19
13.889000000000124,12.614,-43.933
13.911000000000058,9.955,-38.4
13.922999999999774,12.37,-43.969
13.945000000000618,11.299,-46.564
13.957000000000335,11.332,-47.146
13.97900000000027,11.463,-48.652
14.001000000000204,12.629,-48.914
14.01299999999992,12.214,-46.822
14.034999999999854,12.779,-47.716
14.04700000000048,11.915,-47.436
14.069000000000415,10.13,-46.451
14.081000000000131,11.136,-48.307
14.103000000000065,11.551,-51.331
14.125,11.275,-52.012
14.137000000000626,10.454,-51.962
14.15900000000056,11.279,-52.732
14.171000000000276,10.904,-52.107
14.193000000000211,10.145,-51.442
14.204999999999927,8.132,-50.796
14.226999999999862,7.533,-52.054
14.239000000000487,7.055,-52.104
14.261000000000422,5.456,-51.539
14.283000000000357,4.546,-50.815
14.295000000000073,2.841,-48.684
14.317000000000007,2.022,-48.65
14.329000000000633,2.384,-50.127
14.351000000000568,2.102,-50.84
14.363000000000284,2.324,-51.626
14.385000000000218,2.645,-50.926
14.407000000000153,3.811,-50.554
14.418999999999869,4.618,-52.224
14.440999999999804,5.042,-57.649
14.45300000000043,4.195,-58.739
14.475000000000364,2.075,-53.112
14.48700000000008,0.81,-48.389
14.509000000000015,0.194,-47.711
14.530999999999949,-1.267,-45.764
14.543000000000575,-3.102,-42.398
14.56500000000051,-4.436,-39.18
14.577000000000226,-5.434,-35.863
14.59900000000016,-5.81,-36.143
14.610999999999876,-5.705,-36.488
14.63299999999981,-5.663,-35.527
14.645000000000437,-5.032,-35.127
14.667000000000371,-3.91,-37.28
14.689000000000306,-2.297,-39.169
14.701000000000022,-1.179,-37.935
14.722999999999956,-0.006,-37.54
14.735000000000582,0.854,-38.831
14.761997999999949,1.033,-38.464
14.774000000000342,1.139,-37.429
14.786000000000058,1.518,-38.768
14.807999999999993,1.859,-37.948
14.829999999999927,2.123,-37.194
14.842000000000553,3.145,-38.32
14.864000000000487,3.019,-39.137
14.876000000000204,3.63,-39.356
14.898000000000138,5.192,-37.921
14.909999999999854,6.162,-35.325
14.931999999999789,7.025,-35.294
14.954000000000633,9.186,-35.31
14.96600000000035,9.375,-33.692
14.988000000000284,10.573,-30.826
15.0,12.358,-31.016
15.021999999999935,13.231,-30.434
15.03400000000056,13.425,-28.861
15.056000000000495,14.328,-30.048
15.07800000000043,15.9,-31.518
15.090000000000146,16.23,-31.846
15.11200000000008,17.337,-32.35
15.123999999999796,17.53,-31.05
15.14600000000064,18.211,-28.0
15.158000000000357,18.552,-27.63
15.180000000000291,21.461,-29.958
15.192000000000007,20.96,-29.225
15.213999999999942,19.488,-26.081
15.235999999999876,21.197,-25.745
15.248000000000502,22.122,-24.875
15.270000000000437,21.917,-23.476
15.282000000000153,21.765,-24.948
15.304000000000087,21.623,-23.638
15.315999999999804,23.46,-22.26
15.338000000000648,24.231,-21.544
15.360000000000582,23.95,-20.977
15.372000000000298,24.551,-20.789
15.394000000000233,26.002,-20.58
15.405999999999949,27.548,-22.74
15.427999999999884,28.599,-22.903
15.44000000000051,26.893,-23.25
15.462000000000444,27.675,-25.383
15.484000000000378,28.29,-25.988
15.496000000000095,28.908,-24.945
15.518000000000029,32.409,-22.25
15.530000000000655,33.577,-21.313
15.55200000000059,36.72,-22.302
15.564000000000306,34.986,-20.186
15.58600000000024,34.957,-19.698
15.597999999999956,36.32,-19.906
15.61999999999989,36.451,-19.07
15.641999999999825,36.48,-18.032
15.654000000000451,35.487,-17.551
15.676000000000386,36.555,-16.325
15.688000000000102,36.834,-17.167
15.710000000000036,37.781,-17.495
15.721999999999753,35.234,-16.746
15.744000000000597,34.714,-14.216
15.766000000000531,35.667,-15.876
15.778000000000247,37.829,-18.052
15.800000000000182,36.791,-18.339
15.811999999999898,34.051,-15.861
15.833999999999833,32.967,-16.921
15.846000000000458,35.217,-18.818
15.868000000000393,34.205,-19.133
15.88000000000011,32.595,-17.865
15.902000000000044,28.668,-16.764
15.923999999999978,30.162,-20.247
15.936000000000604,29.452,-22.432
15.958000000000538,28.249,-22.218
15.970000000000255,24.038,-21.984
15.99200000000019,25.801,-20.926
16.014000000000124,26.553,-23.385
16.02599999999984,24.581,-23.662
16.047999999999774,22.864,-23.014
16.0600000000004,22.579,-21.831
16.082000000000335,22.245,-24.285
16.09400000000005,22.988,-26.108
16.115999999999985,21.105,-25.855
16.12800000000061,20.404,-23.968
16.150000000000546,19.9,-25.803
16.17200000000048,18.716,-26.823
16.184000000000196,15.711,-26.108
16.20600000000013,14.822,-25.693
16.217999999999847,14.299,-28.423
16.23999999999978,13.427,-30.327
16.252000000000407,12.095,-29.736
16.274000000000342,10.62,-29.296
16.286000000000058,11.174,-29.964
16.307999999999993,11.975,-30.4
16.329999999999927,13.194,-30.018
16.342000000000553,14.03,-28.663
16.364000000000487,15.966,-27.852
16.376000000000204,17.26,-27.972
16.39800000000014,18.069,-26.653
16.420000000000073,16.58,-27.441
16.43199999999979,17.723,-28.881
16.454000000000633,18.758,-31.248
16.46600000000035,18.708,-32.836
16.488000000000284,17.257,-30.444
16.5,18.59,-30.696
16.521999999999935,18.141,-32.24
16.53400000000056,16.522,-32.121
16.556000000000495,16.04,-32.755
16.57800000000043,14.685,-31.098
16.590000000000146,14.982,-30.292
16.61200000000008,15.566,-32.249
16.623999999999796,15.757,-33.216
16.64600000000064,15.361,-31.122
16.658000000000357,14.431,-28.423
16.68000000000029,15.263,-30.438
16.692000000000007,15.877,-32.163
16.713999999999942,16.524,-32.208
16.735999999999876,14.866,-30.344
16.748000000000502,15.676,-29.001
16.76499800000056,16.917,-29.777
16.787000000000262,17.579,-29.996
16.798999999999978,15.078,-27.089
16.820999999999913,14.896,-28.803
16.83300000000054,15.402,-29.436
16.855000000000473,14.795,-29.934
16.877000000000407,13.853,-29.822
16.889000000000124,12.125,-29.684
16.911000000000058,11.166,-29.298
16.922999999999774,12.252,-32.161
16.94500000000062,11.713,-34.332
16.957000000000335,10.647,-33.373
16.97900000000027,9.964,-32.913
17.001000000000204,9.466,-31.382
17.01299999999992,8.954,-30.489
17.034999999999854,9.102,-32.051
17.04700000000048,8.957,-33.554
17.069000000000415,8.162,-34.444
17.08100000000013,7.921,-34.763
17.103000000000065,8.082,-36.547
17.125,8.227,-37.697
17.137000000000626,8.312,-38.09
17.15900000000056,9.466,-39.516
17.171000000000276,9.498,-37.966
17.19300000000021,9.513,-35.421
17.204999999999927,10.644,-35.427
17.22699999999986,12.978,-38.118
17.239000000000487,12.782,-39.71
17.261000000000422,12.45,-41.215
17.283000000000357,11.908,-41.613
17.295000000000073,11.49,-40.058
17.317000000000007,12.582,-40.63
17.329000000000633,13.279,-41.829
17.351000000000568,11.767,-42.445
17.363000000000284,10.907,-42.133
17.38500000000022,10.537,-45.629
17.407000000000153,7.884,-43.481
17.41899999999987,8.019,-45.51
17.440999999999804,7.333,-46.272
17.45300000000043,0.213,-47.972
17.475000000000364,4.617,-46.759
17.48700000000008,4.022,-45.935
17.509000000000015,3.949,-47.59
17.53099999999995,4.344,-47.753
17.543000000000575,4.271,-47.632
17.56500000000051,2.843,-46.437
17.577000000000226,2.533,-45.831
17.59900000000016,2.338,-47.234
17.610999999999876,2.121,-47.123
17.63299999999981,2.031,-47.879
17.645000000000437,1.612,-48.402
17.66700000000037,1.659,-50.676
17.689000000000306,1.158,-50.236
17.701000000000022,1.307,-50.278
17.722999999999956,1.44,-51.107
17.735000000000582,0.729,-51.094
17.757000000000517,-0.175,-51.187
17.769000000000233,-0.817,-51.669
17.791000000000167,-2.39,-50.697
17.813000000000102,-3.018,-51.262
17.824999999999818,-3.456,-52.419
17.846999999999753,-4.172,-52.336
17.85900000000038,-3.978,-52.638
17.881000000000313,-3.825,-53.245
17.89300000000003,-3.487,-53.741
17.914999999999964,-3.284,-52.532
17.92700000000059,-2.589,-52.696
17.949000000000524,-1.832,-52.454
17.97100000000046,-0.712,-53.59
17.983000000000175,-0.39,-53.121
18.00500000000011,-0.444,-53.816
18.016999999999825,-1.296,-53.021
18.03899999999976,-1.222,-54.925
18.051000000000386,-1.068,-55.373
18.07300000000032,-2.322,-53.68
18.095000000000255,-1.973,-50.434
18.10699999999997,-1.578,-48.665
18.128999999999905,-0.719,-49.568
18.14100000000053,0.48,-48.805
18.163000000000466,1.214,-47.478
18.175000000000182,2.064,-47.399
18.197000000000116,3.255,-48.002
18.21900000000005,4.665,-49.854
18.230999999999767,5.1,-51.144
18.25300000000061,6.18,-53.314
18.265000000000327,6.719,-57.088
18.287000000000262,6.776,-56.066
18.298999999999978,6.882,-55.15
18.320999999999913,7.572,-57.372
18.33300000000054,7.589,-59.128
18.355000000000473,8.061,-61.278
18.377000000000407,8.314,-60.785
18.389000000000124,8.234,-58.187
18.411000000000058,9.004,-58.504
18.422999999999774,10.221,-59.959
18.44500000000062,9.833,-58.401
18.457000000000335,9.094,-56.121
18.47900000000027,8.55,-56.7
18.501000000000204,9.767,-58.713
18.51299999999992,10.309,-59.346
18.534999999999854,9.017,-58.26
18.54700000000048,8.071,-56.74
18.569000000000415,9.149,-59.986
18.58100000000013,9.931,-64.737
18.603000000000065,11.07,-66.769
18.625,10.501,-65.022
18.637000000000626,11.231,-63.536
18.65900000000056,11.885,-65.043
18.671000000000276,11.117,-67.11
18.69300000000021,11.417,-70.095
18.704999999999927,11.617,-70.925
18.72699999999986,13.122,-68.706
18.739000000000487,14.078,-68.853
18.765997999999854,15.12,-68.62
18.778000000000247,14.943,-69.641
18.800000000000182,13.632,-71.49
18.811999999999898,13.463,-69.806
18.833999999999833,12.696,-67.044
18.84600000000046,12.382,-66.519
18.868000000000393,12.481,-69.009
18.88000000000011,11.811,-70.336
18.902000000000044,11.7,-72.377
18.923999999999978,12.228,-73.989
18.936000000000604,11.579,-73.479
18.95800000000054,11.129,-71.348
18.970000000000255,10.661,-70.298
18.99200000000019,10.838,-69.546
19.003999999999905,12.35,-71.428
19.02599999999984,13.653,-73.049
19.047999999999774,13.872,-73.074
19.0600000000004,13.0,-70.871
19.082000000000335,13.71,-70.617
19.09400000000005,13.945,-70.756
19.115999999999985,14.497,-71.863
19.12800000000061,15.572,-72.665
19.150000000000546,15.683,-73.688
19.17200000000048,14.446,-71.277
19.184000000000196,13.604,-70.282
19.20600000000013,14.933,-71.779
19.217999999999847,17.642,-66.822
19.23999999999978,13.99,-67.105
19.252000000000407,14.978,-69.955
19.274000000000342,13.348,-67.484
19.296000000000276,12.281,-65.658
19.307999999999993,12.021,-68.069
19.329999999999927,13.978,-71.362
19.342000000000553,12.98,-69.617
19.364000000000487,11.651,-65.96
19.376000000000204,11.766,-60.81
19.39800000000014,13.067,-63.794
19.409999999999854,13.555,-64.886
19.43199999999979,12.653,-62.504
19.454000000000633,14.005,-65.247
19.46600000000035,13.721,-64.9
19.488000000000284,12.41,-66.722
19.5,10.488,-65.817
19.521999999999935,9.616,-65.317
19.53400000000056,10.437,-66.37
19.556000000000495,10.106,-67.017
19.568285000000287,10.538,-71.008
19.590000000000146,9.511,-68.262
19.61200000000008,9.107,-67.721
19.623999999999796,10.162,-71.234
19.64600000000064,10.261,-71.186
19.658000000000357,9.356,-73.364
19.68000000000029,7.75,-71.363
19.702000000000226,8.23,-70.765
19.713999999999942,10.472,-73.128
19.735999999999876,10.927,-75.899
19.748000000000502,10.462,-78.184
19.770000000000437,10.048,-75.957
19.782000000000153,11.712,-76.286
19.804000000000087,12.866,-75.939
19.815999999999804,13.196,-75.81
19.838000000000648,13.614,-76.093
19.860000000000582,15.318,-74.647
19.8720000000003,13.238,-73.801
19.894000000000233,11.431,-74.035
19.90599999999995,10.454,-73.938
19.927999999999884,9.323,-76.251
19.94000000000051,10.515,-77.034
19.962000000000444,11.914,-76.337
19.97400000000016,12.313,-75.002
19.996000000000095,11.466,-72.187
20.01800000000003,11.389,-74.453
20.030000000000655,12.213,-76.159
20.05200000000059,13.268,-76.192
20.064000000000306,13.039,-75.394
20.08600000000024,14.318,-73.906
20.097999999999956,14.562,-73.887
20.11999999999989,15.296,-74.169
20.141999999999825,14.668,-74.62
20.15400000000045,13.125,-73.877
20.176000000000386,11.503,-72.129
20.188000000000102,12.263,-74.265
20.210000000000036,10.069,-72.917
20.221999999999753,7.076,-65.523
20.244000000000597,5.812,-63.632
20.26600000000053,7.326,-66.863
20.278000000000247,8.23,-66.55
20.300000000000182,11.299,-70.108
20.311999999999898,13.915,-72.127
20.333999999999833,15.619,-72.971
20.34600000000046,15.237,-73.73
20.368000000000393,14.971,-73.982
20.38000000000011,14.085,-74.604
20.402000000000044,13.552,-72.71
20.423999999999978,13.996,-72.801
20.436000000000604,13.786,-73.176
20.45800000000054,13.56,-74.2
20.470000000000255,14.055,-74.977
20.49200000000019,12.454,-75.954
20.503999999999905,9.001,-72.788
20.52599999999984,5.861,-69.629
20.547999999999774,2.907,-67.816
20.5600000000004,1.211,-67.681
20.582000000000335,0.932,-70.291
20.59400000000005,0.42,-71.951
20.615999999999985,1.396,-73.946
20.62800000000061,2.446,-75.306
20.650000000000546,3.492,-77.051
20.67200000000048,4.594,-77.392
20.684000000000196,5.265,-77.553
20.70600000000013,5.769,-77.478
20.717999999999847,6.139,-77.808
20.73999999999978,6.31,-76.919
20.752000000000407,7.456,-75.964
20.768998000000465,7.955,-74.566
20.791000000000167,9.522,-75.199
20.813000000000102,10.556,-75.094
20.824999999999818,12.129,-75.604
20.846999999999753,12.799,-75.591
20.85900000000038,12.588,-74.126
20.881000000000313,12.526,-73.289
20.89300000000003,12.65,-73.514
20.914999999999964,13.554,-74.206
20.92700000000059,14.236,-73.707
20.949000000000524,14.678,-73.233
20.97100000000046,14.781,-72.955
20.983000000000175,13.911,-73.815
21.00500000000011,14.311,-74.462
21.016999999999825,14.236,-73.941
21.03899999999976,13.135,-73.915
21.051000000000386,12.691,-74.527
21.07300000000032,12.096,-73.987
21.095000000000255,12.248,-74.517
21.10699999999997,12.613,-74.336
21.128999999999905,13.578,-74.436
21.14100000000053,14.287,-73.621
21.163000000000466,14.971,-73.911
21.175000000000182,15.552,-73.422
21.197000000000116,15.269,-73.378
21.21900000000005,15.096,-73.749
21.230999999999767,14.567,-73.96
21.25300000000061,14.009,-74.102
21.265000000000327,14.14,-73.752
21.287000000000262,13.719,-73.555
21.298999999999978,13.367,-74.381
21.320999999999913,12.652,-74.465
21.33300000000054,12.578,-74.844
21.355000000000473,12.519,-74.077
21.377000000000407,12.621,-73.91
21.389000000000124,12.854,-74.177
21.411000000000058,11.153,-74.518
21.422999999999774,10.207,-75.853
21.44500000000062,9.116,-77.062
21.457000000000335,8.984,-77.809
21.47900000000027,8.617,-76.518
21.501000000000204,8.488,-75.408
21.51299999999992,8.818,-75.565
21.534999999999854,9.369,-76.139
21.54700000000048,9.984,-77.396
21.569000000000415,10.256,-76.705
21.58100000000013,10.809,-76.748
21.603000000000065,11.276,-77.093
21.61499999999978,11.43,-77.011
21.637000000000626,10.983,-77.521
21.65900000000056,9.509,-77.136
21.671000000000276,8.586,-76.125
21.69300000000021,7.512,-75.595
21.704999999999927,6.832,-76.484
21.72699999999986,6.071,-77.584
21.748999999999796,5.529,-76.828
21.761000000000422,6.031,-78.929
21.783000000000357,6.142,-77.369
21.795000000000073,6.854,-77.603
21.817000000000007,8.023,-78.328
21.829000000000633,9.522,-78.242
21.851000000000568,10.218,-77.821
21.863000000000284,10.871,-77.591
21.88500000000022,10.634,-77.853
21.907000000000153,10.597,-77.456
21.91899999999987,10.024,-77.855
21.940999999999804,9.688,-78.631
21.95300000000043,10.079,-77.627
21.975000000000364,9.932,-77.134
21.98700000000008,10.368,-77.435
22.009000000000015,11.062,-77.134
22.02100000000064,11.942,-76.977
22.043000000000575,13.199,-76.276
22.06500000000051,13.524,-75.829
22.077000000000226,13.423,-75.746
22.09900000000016,14.588,-75.077
22.110999999999876,13.51,-71.546
22.13299999999981,11.964,-75.241
22.145000000000437,11.748,-76.6
22.16700000000037,11.813,-75.922
22.189000000000306,12.468,-75.999
22.201000000000022,13.947,-75.427
22.222999999999956,14.285,-74.561
22.235000000000582,14.582,-74.962
22.257000000000517,14.582,-75.208
22.269000000000233,14.167,-75.316
22.291000000000167,14.852,-74.691
22.313000000000102,15.528,-74.32
22.324999999999818,16.026,-73.874
22.346999999999753,15.444,-74.133
22.35900000000038,15.393,-74.145
22.381000000000313,15.429,-74.126
22.39300000000003,15.872,-73.792
22.414999999999964,16.309,-73.511
22.42700000000059,16.904,-72.764
22.449000000000524,17.593,-71.809
22.47100000000046,18.575,-70.945
22.483000000000175,18.891,-70.615
22.50500000000011,20.074,-69.77
22.516999999999825,20.025,-69.808
22.53899999999976,20.504,-69.462
22.551000000000386,20.469,-69.534
22.57300000000032,20.705,-69.33
22.595000000000255,20.52,-69.418
22.60699999999997,20.147,-69.748
22.628999999999905,19.261,-70.67
22.64100000000053,18.836,-71.137
22.663000000000466,17.981,-72.005
22.675000000000182,18.162,-71.845
22.697000000000116,18.102,-71.643
22.70928499999991,18.006,-71.727
22.730999999999767,17.822,-72.018
22.75300000000061,17.19,-72.701
22.76999799999976,16.65,-73.312
22.782000000000153,16.156,-73.808
22.804000000000087,15.734,-74.192
22.815999999999804,15.323,-74.638
22.838000000000648,14.518,-75.435
22.860000000000582,14.069,-75.775
22.8720000000003,13.787,-75.839
22.894000000000233,14.106,-75.727
22.90599999999995,14.685,-75.181
22.927999999999884,14.745,-75.232
22.94000000000051,14.014,-75.811
22.962000000000444,13.126,-76.673
22.97400000000016,12.22,-77.006
22.996000000000095,11.895,-77.834
23.01800000000003,11.678,-78.035
23.030000000000655,12.192,-77.697
23.05200000000059,12.132,-77.815
23.064000000000306,12.675,-77.318
23.08600000000024,12.346,-77.349
23.097999999999956,12.341,-77.448
23.11999999999989,11.675,-78.169
23.141999999999825,10.197,-79.722
23.15400000000045,9.205,-80.755
23.176000000000386,8.205,-81.706
23.188000000000102,7.497,-82.334
23.210000000000036,7.076,-82.782
23.221999999999753,7.151,-82.765
23.244000000000597,8.547,-81.465
23.26600000000053,9.478,-80.442
23.278000000000247,10.722,-79.204
23.300000000000182,11.707,-78.304
23.311999999999898,11.984,-78.041
23.333999999999833,11.912,-78.094
23.34600000000046,12.061,-77.859
23.368000000000393,11.531,-78.434
23.38000000000011,11.025,-78.886
23.402000000000044,11.371,-78.603
23.423999999999978,11.504,-78.518
23.436000000000604,12.006,-77.988
23.45800000000054,11.777,-78.238
23.470000000000255,12.166,-77.851
23.49200000000019,11.832,-78.18
23.503999999999905,11.465,-78.533
23.52599999999984,11.109,-78.9
23.547999999999774,10.705,-79.309
23.5600000000004,10.397,-79.561
23.582000000000335,10.438,-79.565
23.59400000000005,10.464,-79.538
23.615999999999985,10.179,-79.743
23.62800000000061,9.36,-80.5
23.650000000000546,8.757,-80.977
23.662000000000262,8.693,-81.171
23.684000000000196,8.544,-81.341
23.70600000000013,8.394,-81.353
23.717999999999847,8.335,-81.581
23.73999999999978,8.599,-81.36
23.752000000000407,8.607,-81.39
23.774000000000342,8.799,-81.223
23.786000000000058,9.846,-80.156
23.807999999999993,9.122,-80.575
23.829999999999927,8.208,-81.639
23.842000000000553,7.07,-81.721
23.864000000000487,7.754,-81.691
23.876000000000204,8.018,-81.77
23.89800000000014,7.265,-82.419
23.909999999999854,5.937,-83.845
23.93199999999979,5.536,-83.891
23.954000000000633,5.317,-84.332
23.96600000000035,4.414,-84.604
23.988000000000284,4.867,-84.755
24.0,5.255,-84.518
24.021999999999935,4.78,-85.065
24.03400000000056,3.945,-85.832
24.056000000000495,3.952,-85.462
24.06800000000021,3.937,-84.612
24.090000000000146,3.527,-85.246
24.11200000000008,3.368,-85.857
24.123999999999796,2.969,-86.74
24.14600000000064,2.37,-86.134
24.158000000000357,2.445,-83.693
24.18000000000029,2.76,-85.474
24.192000000000007,1.994,-87.123
24.213999999999942,1.284,-87.021
24.235999999999876,0.569,-87.02
24.248000000000502,1.415,-85.547
24.270000000000437,1.473,-86.478
24.282000000000153,1.821,-87.36
24.304000000000087,2.688,-86.866
24.315999999999804,3.029,-86.475
24.338000000000648,1.604,-85.477
24.360000000000582,1.927,-86.929
24.3720000000003,3.03,-86.348
24.394000000000233,3.527,-86.239
24.40599999999995,2.975,-85.147
24.427999999999884,3.47,-85.795
24.44000000000051,3.919,-85.79
24.462000000000444,3.94,-85.38
24.47400000000016,3.268,-85.272
24.496000000000095,2.781,-85.592
24.51800000000003,2.547,-85.999
24.530000000000655,2.261,-86.611
24.55200000000059,1.624,-86.29
24.564000000000306,2.412,-86.793
24.58600000000024,1.971,-86.241
24.597999999999956,1.929,-87.276
24.61999999999989,1.957,-86.493
24.641999999999825,2.268,-85.074
24.65400000000045,2.432,-85.703
24.676000000000386,2.604,-86.119
24.688000000000102,2.83,-86.594
24.710000000000036,3.626,-85.68
24.721999999999753,4.061,-85.386
24.744000000000597,5.265,-84.416
24.756000000000313,5.171,-84.408
24.783000000000357,4.889,-84.41
24.795000000000073,4.327,-84.248
24.817000000000007,3.744,-85.44
24.829000000000633,2.914,-85.875
24.851000000000568,1.883,-87.605
24.863000000000284,2.001,-87.166
24.88500000000022,2.087,-86.934
24.907000000000153,1.132,-84.738
24.91899999999987,0.857,-85.183
24.940999999999804,1.112,-83.729
24.95300000000043,0.988,-82.423
24.975000000000364,1.288,-84.441
24.98700000000008,1.347,-84.51
25.009000000000015,1.458,-83.837
25.02100000000064,1.998,-83.979
25.043000000000575,2.299,-84.48
25.06500000000051,2.81,-85.259
25.077000000000226,1.986,-84.303
25.09900000000016,1.789,-85.561
25.110999999999876,1.515,-86.974
25.13299999999981,1.738,-86.646
25.145000000000437,1.75,-86.98
25.16700000000037,1.508,-87.401
25.189000000000306,0.865,-85.23
25.201000000000022,0.84,-83.395
25.222999999999956,0.82,-84.367
25.235000000000582,0.693,-85.492
25.257000000000517,0.139,-85.951
25.269000000000233,0.253,-85.784
25.291000000000167,0.168,-85.985
25.30328499999996,0.251,-85.207
25.324999999999818,0.062,-84.505
25.346999999999753,0.514,-84.902
25.35900000000038,0.72,-83.443
25.381000000000313,1.063,-83.543
25.39300000000003,0.732,-81.515
25.414999999999964,1.202,-81.511
25.42700000000059,1.952,-81.756
25.449000000000524,1.936,-81.922
25.47100000000046,1.879,-82.633
25.483000000000175,2.306,-83.348
25.50500000000011,1.333,-82.993
25.516999999999825,0.204,-82.191
25.53899999999976,-0.679,-82.557
25.551000000000386,-0.708,-83.899
25.57300000000032,-1.387,-83.83
25.595000000000255,-2.198,-81.427
25.60699999999997,-2.543,-81.046
25.628999999999905,-2.433,-82.257
25.64100000000053,-3.017,-81.0
25.663000000000466,-3.241,-81.176
25.675000000000182,-2.862,-82.37
25.697000000000116,-2.169,-85.221
25.71900000000005,-1.988,-84.719
25.730999999999767,-1.409,-84.486
25.75300000000061,-1.025,-84.325
25.765000000000327,-1.103,-83.455
25.787000000000262,-1.778,-83.201
25.798999999999978,-1.787,-83.498
25.820999999999913,-1.666,-85.226
25.83300000000054,-1.318,-86.48
25.855000000000473,-0.911,-86.668
25.877000000000407,-0.334,-87.512
25.889000000000124,-0.517,-86.787
25.911000000000058,-0.042,-87.81
25.922999999999774,1.243,-87.809
25.94500000000062,2.003,-87.791
25.957000000000335,2.818,-87.064
25.97900000000027,3.743,-85.264
26.001000000000204,5.636,-81.845
26.01299999999992,6.665,-81.644
26.034999999999854,7.055,-82.18
26.04700000000048,6.981,-82.743
26.069000000000415,6.428,-83.484
26.08100000000013,6.855,-82.929
26.103000000000065,6.397,-83.156
26.11499999999978,5.087,-84.016
26.137000000000626,5.133,-82.807
26.15900000000056,5.489,-82.917
26.171000000000276,5.975,-83.441
26.19300000000021,3.66,-83.98
26.204999999999927,4.667,-84.337
26.22699999999986,5.409,-84.098
26.239000000000487,6.278,-82.524
26.261000000000422,6.564,-81.749
26.283000000000357,7.3,-81.839
26.295000000000073,8.228,-80.133
26.317000000000007,9.204,-80.161
26.329000000000633,9.487,-80.271
26.351000000000568,9.019,-80.729
26.363000000000284,8.509,-81.38
26.38500000000022,7.761,-82.064
26.407000000000153,7.747,-82.015
26.41899999999987,7.896,-81.933
26.440999999999804,7.698,-82.217
26.45300000000043,8.308,-81.578
26.475000000000364,8.081,-81.519
26.48700000000008,7.413,-81.019
26.509000000000015,6.047,-82.814
26.52100000000064,6.086,-79.279
26.543000000000575,6.95,-76.738
26.56500000000051,8.402,-73.036
26.577000000000226,10.472,-71.55
26.59900000000016,9.473,-77.16
26.610999999999876,8.575,-79.356
26.63299999999981,7.621,-79.453
26.645000000000437,7.928,-77.287
26.66700000000037,7.932,-77.559
26.689000000000306,6.786,-81.372
26.701000000000022,5.589,-83.436
26.722999999999956,5.919,-83.726
26.735000000000582,6.993,-81.808
26.757000000000517,8.497,-78.994
26.773998000000574,8.773,-79.997
26.786000000000058,9.613,-79.013
26.807999999999993,10.959,-78.055
26.829999999999927,11.763,-76.093
26.842000000000553,10.993,-76.431
26.864000000000487,11.149,-76.002
26.876000000000204,11.667,-75.095
26.89800000000014,11.353,-75.65
26.909999999999854,11.845,-76.829
26.93199999999979,12.595,-76.815
26.94428500000049,13.305,-76.334
26.96600000000035,13.678,-75.693
26.988000000000284,12.892,-76.614
27.0,13.641,-75.527
27.021999999999935,15.106,-73.971
27.03400000000056,15.018,-74.657
27.056000000000495,15.429,-74.474
27.06800000000021,17.194,-72.743
27.090000000000146,18.8,-70.775
27.11200000000008,19.401,-70.091
27.123999999999796,18.687,-70.505
27.14600000000064,19.39,-70.158
27.158000000000357,19.631,-70.131
27.18000000000029,19.08,-70.658
27.192000000000007,19.775,-69.741
27.213999999999942,20.938,-67.857
27.235999999999876,21.581,-67.205
27.248000000000502,21.625,-67.67
27.270000000000437,23.194,-66.371
27.282000000000153,24.617,-65.11
27.304000000000087,26.156,-63.755
27.315999999999804,25.799,-63.857
27.338000000000648,25.695,-63.054
27.350000000000364,26.255,-61.848
27.3720000000003,26.777,-62.463
27.394000000000233,26.679,-61.95
27.40599999999995,27.241,-61.331
27.427999999999884,28.091,-60.636
27.44000000000051,27.339,-60.529
27.462000000000444,26.491,-60.543
27.47400000000016,25.954,-61.304
27.496000000000095,25.357,-61.854
27.51800000000003,25.251,-62.331
27.530000000000655,24.604,-63.614
27.55200000000059,24.899,-63.432
27.564000000000306,26.399,-62.473
27.58600000000024,25.765,-62.454
27.597999999999956,26.696,-61.29
27.61999999999989,27.796,-60.771
27.641999999999825,27.421,-60.32
27.65400000000045,26.619,-59.764
27.676000000000386,26.02,-60.816
27.688000000000102,25.516,-60.47
27.710000000000036,26.715,-59.69
27.721999999999753,27.638,-59.446
27.744000000000597,26.762,-59.355
27.76600000000053,26.91,-59.611
27.778000000000247,26.209,-61.193
27.800000000000182,25.252,-61.143
27.811999999999898,23.926,-60.419
27.833999999999833,22.357,-60.902
27.84600000000046,21.304,-61.321
27.868000000000393,20.141,-61.302
27.88000000000011,18.889,-61.629
27.902000000000044,19.924,-65.561
27.923999999999978,20.991,-65.264
27.936000000000604,20.343,-63.379
27.95800000000054,18.437,-62.768
27.970000000000255,16.097,-63.077
27.99200000000019,14.302,-63.407
28.003999999999905,13.826,-65.018
28.02599999999984,13.089,-67.274
28.038000000000466,13.157,-69.268
28.0600000000004,11.936,-66.992
28.082000000000335,11.452,-65.79
28.09400000000005,11.862,-66.042
28.115999999999985,11.403,-66.933
28.12800000000061,9.764,-64.951
28.150000000000546,9.263,-65.584
28.162000000000262,7.808,-65.321
28.184000000000196,6.84,-66.75
28.20600000000013,7.38,-69.206
28.217999999999847,7.689,-68.94
28.23999999999978,8.069,-69.374
28.252000000000407,8.657,-69.468
28.274000000000342,8.997,-68.538
28.286000000000058,9.165,-66.877
28.307999999999993,9.329,-68.27
28.329999999999927,9.505,-70.758
28.342000000000553,10.167,-72.463
28.364000000000487,8.883,-70.633
28.376000000000204,7.134,-67.86
28.39800000000014,5.827,-67.135
28.409999999999854,5.097,-68.047
28.43199999999979,4.63,-69.84
28.444000000000415,5.264,-70.593
28.46600000000035,5.29,-68.833
28.488000000000284,4.903,-66.373
28.5,4.966,-65.314
28.521999999999935,5.967,-66.719
28.53400000000056,6.751,-69.362
28.556000000000495,6.631,-68.245
28.56800000000021,7.238,-68.985
28.590000000000146,7.952,-69.371
28.61200000000008,8.562,-69.569
28.623999999999796,8.906,-69.454
28.64600000000064,8.848,-66.249
28.658000000000357,10.031,-67.056
28.68000000000029,11.058,-68.766
28.692000000000007,12.374,-71.656
28.713999999999942,10.486,-72.149
28.735999999999876,9.258,-72.294
28.748000000000502,7.534,-73.674
28.77499799999987,6.262,-74.24
28.787000000000262,4.808,-73.862
28.798999999999978,4.369,-70.363
28.820999999999913,4.732,-71.861
28.83300000000054,3.663,-69.586
28.855000000000473,3.944,-69.642
28.877000000000407,5.418,-70.781
28.889000000000124,5.365,-69.327
28.911000000000058,5.372,-67.647
28.922999999999774,4.999,-65.773
28.94500000000062,4.391,-66.118
28.957000000000335,3.552,-67.335
28.97900000000027,2.355,-68.131
28.990999999999985,0.549,-66.343
29.01299999999992,-2.8,-61.529
29.034999999999854,-5.342,-58.18
29.04700000000048,-4.785,-59.641
29.069000000000415,-2.614,-62.817
29.08100000000013,0.431,-63.229
29.103000000000065,3.299,-61.582
29.125,5.362,-57.614
29.137000000000626,8.479,-54.997
29.15900000000056,12.166,-56.828
29.171000000000276,15.08,-59.219
29.19300000000021,17.99,-60.635
29.204999999999927,19.372,-60.599
29.22699999999986,21.468,-61.51
29.239000000000487,21.292,-60.785
29.261000000000422,21.902,-63.181
29.283000000000357,22.377,-65.805
29.295000000000073,21.437,-67.482
29.317000000000007,20.305,-68.032
29.329000000000633,18.787,-66.584
29.351000000000568,19.297,-66.622
29.363000000000284,21.021,-67.241
29.38500000000022,23.292,-66.036
29.407000000000153,23.693,-66.089
29.41899999999987,22.801,-66.18
29.440999999999804,23.81,-64.779
29.45300000000043,24.182,-65.252
29.475000000000364,25.198,-64.489
29.48700000000008,26.637,-63.082
29.509000000000015,26.646,-63.29
29.52100000000064,26.0,-63.862
29.543000000000575,24.648,-64.613
29.56500000000051,26.016,-63.756
29.577000000000226,27.602,-62.22
29.59900000000016,29.866,-59.544
29.610999999999876,27.98,-61.657
29.63299999999981,30.402,-58.462
29.645000000000437,31.699,-55.661
29.66700000000037,31.165,-57.84
29.689000000000306,31.048,-57.747
29.701000000000022,30.068,-57.36
29.722999999999956,28.711,-58.086
29.735000000000582,28.609,-58.291
29.757000000000517,27.465,-60.992
29.769000000000233,25.385,-63.897
29.791000000000167,23.477,-64.516
29.802999999999884,22.332,-63.938
29.824999999999818,21.331,-63.631
29.846999999999753,21.013,-65.59
29.85900000000038,21.628,-66.937
29.881000000000313,22.399,-64.539
29.89300000000003,22.297,-63.963
29.914999999999964,19.865,-65.765
29.92700000000059,18.148,-66.488
29.949000000000524,16.84,-67.683
29.97100000000046,17.184,-61.942
29.983000000000175,17.21,-64.242
30.00500000000011,16.928,-63.448
30.016999999999825,15.874,-63.411
30.03899999999976,14.372,-60.805
30.051000000000386,13.317,-61.589
30.07300000000032,14.124,-59.255
30.095000000000255,15.304,-56.132
30.10699999999997,16.196,-55.052
30.128999999999905,17.521,-50.218
30.14100000000053,17.459,-51.574
30.163000000000466,17.483,-49.312
30.175000000000182,17.468,-50.686
30.197000000000116,17.405,-50.58
30.208999999999833,16.893,-49.902
30.230999999999767,16.356,-48.759
30.25300000000061,15.703,-48.198
30.265000000000327,16.443,-47.38
30.287000000000262,17.268,-44.425
30.298999999999978,18.491,-42.68
30.320999999999913,18.801,-42.293
30.33300000000054,21.523,-37.794
30.355000000000473,24.463,-32.323
30.377000000000407,26.875,-31.361
30.389000000000124,26.867,-31.205
30.411000000000058,24.821,-33.536
30.422999999999774,21.464,-40.09
30.44500000000062,18.674,-42.892
30.457000000000335,16.401,-47.844
30.47900000000027,15.09,-49.11
30.490999999999985,14.178,-53.944
30.51299999999992,14.409,-52.677
30.534999999999854,14.415,-55.333
30.54700000000048,15.041,-55.746
30.569000000000415,13.688,-61.581
30.58100000000013,13.645,-62.803
30.603000000000065,12.731,-63.938
30.61499999999978,11.402,-65.826
30.637000000000626,11.718,-64.88
30.65900000000056,10.304,-65.274
30.671000000000276,8.595,-68.32
30.69300000000021,6.839,-71.822
30.704999999999927,6.55,-74.845
30.72699999999986,6.871,-76.859
30.739000000000487,7.74,-72.731
30.761000000000422,6.076,-79.11
30.77799800000048,6.78,-79.523
30.800000000000182,7.458,-78.836
30.811999999999898,8.279,-76.252
30.833999999999833,9.757,-76.732
30.84600000000046,11.96,-76.773
30.868000000000393,12.996,-76.412
30.88000000000011,14.417,-75.361
30.902000000000044,15.767,-70.723
30.923999999999978,15.494,-65.574
30.936000000000604,15.7,-67.825
30.95800000000054,16.41,-67.95
30.970000000000255,17.127,-69.127
30.99200000000019,18.071,-69.511
31.003999999999905,17.339,-70.656
31.02599999999984,16.034,-72.223
31.038285000000542,15.646,-70.996
31.0600000000004,14.961,-71.412
31.082000000000335,13.622,-74.366
31.09400000000005,11.758,-77.342
31.115999999999985,10.736,-75.472
31.12800000000061,11.301,-71.47
31.150000000000546,12.621,-74.507
31.162000000000262,14.508,-74.324
31.184000000000196,15.089,-72.829
31.20600000000013,15.494,-72.292
31.217999999999847,16.709,-70.119
31.23999999999978,16.638,-71.29
31.252000000000407,15.403,-73.656
31.274000000000342,14.26,-75.458
31.286000000000058,14.542,-75.394
31.307999999999993,16.944,-72.769
31.329999999999927,18.446,-70.514
31.342000000000553,17.416,-72.194
31.364000000000487,17.699,-72.075
31.376000000000204,18.279,-71.668
31.39800000000014,18.46,-71.589
31.409999999999854,18.877,-71.171
31.43199999999979,19.25,-70.806
31.444000000000415,20.657,-69.399
31.46600000000035,21.654,-68.278
31.488000000000284,22.35,-67.235
31.5,23.297,-66.57
31.521999999999935,23.328,-66.595
31.53400000000056,23.862,-66.139
31.556000000000495,25.588,-63.895
31.57800000000043,26.833,-62.733
31.590000000000146,27.429,-62.393
31.61200000000008,27.773,-62.203
31.623999999999796,26.862,-62.747
31.64600000000064,26.653,-62.93
31.658000000000357,26.508,-63.344
31.68000000000029,24.997,-64.871
31.692000000000007,24.515,-65.454
31.713999999999942,24.243,-65.753
31.726285000000644,23.55,-66.451
31.748000000000502,23.477,-66.562
31.770000000000437,22.555,-66.561
31.782000000000153,23.05,-66.493
31.804000000000087,21.76,-67.64
31.815999999999804,20.961,-68.367
31.838000000000648,21.994,-67.52
31.850000000000364,23.835,-65.968
31.8720000000003,25.892,-64.07
31.894000000000233,26.544,-63.457
31.90599999999995,27.301,-62.704
31.927999999999884,27.851,-62.127
31.94000000000051,27.612,-62.393
31.962000000000444,27.947,-62.07
31.97400000000016,27.68,-62.112
31.996000000000095,27.892,-62.027
32.01800000000003,28.644,-61.31
32.030000000000655,28.277,-61.405
32.05200000000059,27.222,-62.14
32.064000000000306,27.97,-61.798
32.08600000000024,28.272,-61.636
32.097999999999956,28.072,-61.659
32.11999999999989,27.684,-61.886
32.13200000000052,26.653,-62.969
32.15400000000045,25.991,-63.802
32.176000000000386,26.21,-63.713
32.1880000000001,25.907,-63.966
32.210000000000036,26.465,-63.237
32.22199999999975,26.759,-63.126
32.2440000000006,23.208,-65.377
32.25600000000031,22.772,-66.467
32.27800000000025,24.321,-65.386
32.30000000000018,23.979,-65.914
32.3119999999999,23.863,-65.767
32.33399999999983,25.327,-64.185
32.34600000000046,24.688,-64.198
32.36800000000039,25.071,-64.104
32.38000000000011,25.393,-64.198
32.402000000000044,26.64,-63.145
32.42399999999998,27.27,-62.628
32.436000000000604,27.319,-62.402
32.45800000000054,27.794,-62.01
32.470000000000255,28.706,-61.218
32.49200000000019,29.701,-60.258
32.503999999999905,28.036,-61.845
32.52599999999984,26.347,-63.538
32.538000000000466,26.631,-63.295
32.5600000000004,26.582,-63.279
32.582000000000335,25.423,-64.379
32.59400000000005,24.48,-65.05
32.615999999999985,24.445,-65.194
32.62800000000061,24.762,-64.998
32.650000000000546,25.359,-64.379
32.66200000000026,25.673,-63.968
32.6840000000002,25.28,-64.299
32.70600000000013,24.394,-64.836
32.71799999999985,22.615,-66.144
32.73999999999978,22.137,-65.457
32.75200000000041,21.549,-66.254
32.778997999999774,20.477,-68.02
32.79100000000017,20.586,-66.469
32.802999999999884,20.956,-65.477
32.82499999999982,20.753,-65.633
32.84699999999975,19.87,-67.088
32.85900000000038,18.601,-68.979
32.88100000000031,17.233,-71.175
32.89300000000003,17.393,-70.62
32.914999999999964,18.054,-68.265
32.92700000000059,17.579,-69.432
32.949000000000524,16.241,-71.989
32.97100000000046,14.608,-74.526
32.983000000000175,13.244,-76.343
33.00500000000011,13.004,-75.82
33.016999999999825,12.91,-75.212
33.03899999999976,11.271,-77.416
33.051000000000386,10.196,-78.719
33.07300000000032,10.069,-78.364
33.085000000000036,10.24,-77.653
33.10699999999997,9.928,-77.204
33.128999999999905,8.888,-78.802
33.14100000000053,8.763,-78.835
33.163000000000466,8.644,-77.929
33.17500000000018,9.07,-75.831
33.197000000000116,8.987,-73.4
33.20899999999983,9.78,-71.401
33.23099999999977,10.056,-70.926
33.25300000000061,8.912,-75.377
33.26500000000033,9.459,-72.532
33.28700000000026,10.162,-70.102
33.29899999999998,9.387,-70.561
33.32099999999991,8.747,-70.856
33.33300000000054,9.709,-68.94
33.35500000000047,10.932,-67.93
33.37700000000041,10.729,-69.997
33.389000000000124,10.301,-71.874
33.41100000000006,10.264,-72.462
33.422999999999774,11.293,-70.077
33.44500000000062,11.729,-70.394
33.457000000000335,10.184,-73.124
33.47900000000027,8.342,-74.087
33.490999999999985,7.446,-74.629
33.51299999999992,8.504,-71.521
33.534999999999854,9.24,-71.726
33.54700000000048,9.597,-73.057
33.569000000000415,9.991,-76.103
33.58100000000013,12.706,-73.195
33.603000000000065,16.184,-69.845
33.61499999999978,20.885,-64.172
33.637000000000626,23.193,-64.089
33.65900000000056,26.162,-59.295
33.67100000000028,29.493,-57.971
33.69300000000021,32.672,-56.06
33.70499999999993,30.359,-59.105
33.72699999999986,33.128,-56.151
33.73900000000049,37.656,-51.292
33.76100000000042,40.798,-48.632
33.78300000000036,43.738,-46.118
33.79500000000007,45.455,-41.195
33.81700000000001,46.374,-38.374
33.82900000000063,44.575,-42.094
33.85100000000057,46.999,-40.482
33.863000000000284,53.833,-35.179
33.88500000000022,64.976,-24.5
33.896999999999935,65.604,-23.966
33.91899999999987,60.406,-29.391
33.9409999999998,59.397,-28.111
33.95300000000043,61.936,-26.914
33.975000000000364,63.316,-20.31
33.98700000000008,71.313,-16.011
34.009000000000015,74.823,-13.977
34.02100000000064,74.586,-10.87
34.043000000000575,78.293,-9.067
34.06500000000051,80.888,-6.304
34.077000000000226,83.284,-3.998
34.09900000000016,77.916,-2.095
34.110999999999876,77.751,-3.601
34.13299999999981,79.049,-6.06
34.14500000000044,80.961,-6.992
34.16700000000037,79.09,0.832
34.179285000000164,69.192,8.417
34.202000000000226,73.343,12.308
34.22400000000016,77.043,11.695
34.235999999999876,80.232,7.985
34.25799999999981,81.307,8.791
34.27000000000044,79.515,10.466
34.29200000000037,73.126,15.041
34.30400000000009,73.867,15.8
34.32600000000002,79.825,10.717
34.33800000000065,79.113,8.796
34.36000000000058,81.378,5.19
34.38200000000052,83.346,3.38
34.39400000000023,86.328,2.789
34.41600000000017,81.926,3.76
34.427999999999884,82.579,5.652
34.44999999999982,82.302,7.669
34.462000000000444,79.632,10.26
34.48400000000038,77.842,12.354
34.50600000000031,78.6,11.214
34.51800000000003,79.652,10.532
34.539999999999964,79.866,10.129
34.55200000000059,80.093,8.585
34.574000000000524,76.784,9.445
34.58600000000024,76.85,2.924
34.608000000000175,76.931,3.99
34.63000000000011,79.176,7.108
34.641999999999825,76.451,11.269
34.66399999999976,71.706,14.145
34.676000000000386,72.015,15.912
34.69800000000032,71.607,16.885
34.710000000000036,74.409,14.685
34.73199999999997,71.117,17.048
34.7440000000006,75.961,13.523
34.76600000000053,75.702,14.533
34.78299800000059,73.735,15.934
34.80500000000029,72.643,17.301
34.81700000000001,70.319,19.862
34.83899999999994,68.43,21.49
34.85100000000057,74.496,12.96
34.8730000000005,79.804,4.459
34.88500000000022,81.496,3.651
34.90700000000015,77.726,10.829
34.92900000000009,72.615,16.789
34.9409999999998,66.648,21.637
34.96300000000065,65.992,21.288
34.975000000000364,68.296,18.085
34.9970000000003,70.622,14.716
35.009000000000015,70.014,12.587
35.03099999999995,71.654,10.309
35.052999999999884,70.223,8.185
35.06500000000051,72.026,10.044
35.087000000000444,68.633,11.206
35.09900000000016,69.712,10.944
35.121000000000095,72.972,5.602
35.13299999999981,76.866,5.578
35.155000000000655,46.725,5.108
35.17700000000059,31.852,40.386
35.189000000000306,61.426,19.404
35.21100000000024,63.685,11.797
35.222999999999956,69.82,3.745
35.24499999999989,51.801,-9.919
35.25700000000052,53.057,-9.798
35.27900000000045,69.751,-9.486
35.29100000000017,63.097,0.605
35.3130000000001,55.279,-1.683
35.335000000000036,63.777,2.647
35.34699999999975,62.182,-3.49
35.3690000000006,60.844,-4.861
35.38100000000031,55.929,-6.023
35.40300000000025,58.494,-4.481
35.414999999999964,61.2,9.676
35.4369999999999,51.2,9.532
35.45899999999983,50.983,2.751
35.47100000000046,50.247,2.839
35.49300000000039,50.562,1.861
35.50500000000011,50.717,3.331
35.527000000000044,49.574,2.563
35.53899999999976,50.781,0.71
35.561000000000604,50.828,-1.283
35.57329100000061,49.048,-2.185
35.595000000000255,42.859,-2.469
35.61700000000019,46.123,-2.749
35.628999999999905,46.144,-2.725
35.65099999999984,52.715,-2.914
35.663000000000466,46.934,-0.53
35.6850000000004,45.886,-1.717
35.697000000000116,45.64,-0.214
35.71900000000005,43.646,-0.236
35.740999999999985,43.771,4.076
35.75300000000061,44.487,6.479
35.775000000000546,43.159,6.139
35.78700000000026,41.68,9.512
35.8090000000002,39.675,8.236
35.82099999999991,39.111,5.362
35.84299999999985,36.004,8.704
35.86499999999978,38.532,4.651
35.87700000000041,38.992,5.559
35.89900000000034,41.114,1.908
35.91100000000006,39.368,3.222
35.93299999999999,35.794,7.227
35.94500000000062,33.791,10.52
35.96700000000055,34.458,8.331
35.97900000000027,35.226,7.346
36.001000000000204,36.03,7.245
36.02300000000014,34.598,8.897
36.034999999999854,35.451,8.124
36.05699999999979,33.841,19.141
36.069000000000415,32.142,11.559
36.09100000000035,30.119,8.648
36.103000000000065,30.423,5.589
36.125,31.018,5.743
36.146999999999935,29.745,6.848
36.15900000000056,28.961,7.426
36.181000000000495,29.769,7.301
36.19300000000021,32.016,4.244
36.215000000000146,31.751,4.198
36.22699999999986,31.56,4.881
36.248999999999796,31.062,5.981
36.27100000000064,31.379,6.277
36.28300000000036,31.039,5.105
36.30500000000029,29.406,6.184
36.31700000000001,27.442,7.979
36.33899999999994,29.159,7.952
36.35100000000057,31.586,6.517
36.3730000000005,32.142,7.142
36.38500000000022,32.939,4.335
36.40700000000015,29.951,5.436
36.42900000000009,30.038,4.817
36.4409999999998,29.412,4.57
36.46300000000065,32.047,3.046
36.475000000000364,30.162,4.575
36.4970000000003,29.065,4.928
36.509000000000015,27.461,5.157
36.53099999999995,27.694,5.468
36.552999999999884,27.208,4.181
36.56500000000051,26.578,5.66
36.587000000000444,26.141,5.959
36.59900000000016,25.749,4.83
36.621000000000095,25.261,4.899
36.63299999999981,26.867,3.829
36.655000000000655,27.927,3.769
36.67700000000059,28.209,3.043
36.689000000000306,27.722,3.46
36.71100000000024,28.354,3.725
36.722999999999956,28.736,2.382
36.74499999999989,26.654,0.415
36.75700000000052,29.017,1.33
36.78399799999988,27.291,3.635
36.79600000000028,26.427,5.092
36.81800000000021,25.827,5.31
36.82999999999993,26.478,4.245
36.85199999999986,26.355,5.084
36.86400000000049,25.879,4.916
36.88600000000042,26.138,4.323
36.89800000000014,26.034,4.807
36.92000000000007,26.774,4.56
36.93199999999979,26.031,5.142
36.95400000000063,25.239,5.553
36.97600000000057,25.411,4.954
36.988000000000284,24.956,4.875
37.01000000000022,25.394,4.803
37.021999999999935,26.291,4.42
37.04399999999987,27.469,3.629
37.056000000000495,28.165,3.513
37.07800000000043,27.209,4.464
37.100000000000364,26.527,5.913
37.11200000000008,26.864,5.694
37.134000000000015,27.037,5.026
37.14600000000064,27.141,4.895
37.168000000000575,28.749,3.812
37.18000000000029,29.123,3.499
37.202000000000226,28.967,3.864
37.22400000000016,29.882,3.677
37.235999999999876,30.054,1.541
37.25799999999981,29.852,4.366
37.27000000000044,31.062,5.835
37.29200000000037,33.493,4.894
37.30400000000009,32.3,5.394
37.32600000000002,32.531,5.187
37.33800000000065,32.935,5.264
37.36000000000058,33.08,4.831
37.38200000000052,32.493,5.818
37.39400000000023,32.818,5.429
37.41600000000017,32.446,5.408
37.427999999999884,29.855,6.381
37.44999999999982,30.9,7.118
37.47199999999975,31.707,6.115
37.48400000000038,31.702,5.807
37.50600000000031,31.598,6.264
37.51800000000003,32.275,5.728
37.539999999999964,32.658,6.426
37.55200000000059,34.151,6.336
37.574000000000524,35.85,6.88
37.58600000000024,39.02,6.259
37.608000000000175,40.47,5.978
37.61999999999989,41.251,5.894
37.641999999999825,41.344,5.206
37.66399999999976,43.459,4.346
37.676000000000386,43.549,4.465
37.69800000000032,43.767,5.373
37.710000000000036,45.24,5.607
37.73199999999997,44.992,5.669
37.7440000000006,46.158,6.154
37.76600000000053,45.677,5.271
37.788000000000466,46.42,6.448
37.80000000000018,47.053,5.585
37.822000000000116,48.554,6.448
37.83399999999983,48.728,6.024
37.85599999999977,56.468,6.784
37.86800000000039,55.371,7.598
37.89000000000033,55.193,6.138
37.91200000000026,60.547,2.561
37.92399999999998,60.284,2.144
37.94599999999991,61.065,4.042
37.95800000000054,63.489,5.838
37.98000000000047,77.566,4.52
37.99200000000019,78.012,1.204
38.014000000000124,79.797,1.268
38.02599999999984,81.039,0.847
38.047999999999774,80.4,-1.11
38.07000000000062,81.776,-2.042
38.082000000000335,82.493,-1.707
38.10400000000027,83.232,-1.247
38.115999999999985,85.179,0.572
38.13799999999992,86.231,2.344
38.150000000000546,84.969,4.079
38.17200000000048,85.211,4.617
38.194000000000415,85.593,3.982
38.20600000000013,86.614,2.503
38.228000000000065,87.22,1.99
38.23999999999978,87.954,1.896
38.262000000000626,88.104,1.716
38.27400000000034,88.275,1.38
38.29600000000028,87.714,0.488
38.31800000000021,86.114,0.051
38.32999999999993,84.956,-1.163
38.35199999999986,84.094,-0.962
38.36400000000049,82.095,-1.946
38.38600000000042,80.668,-2.754
38.39800000000014,81.255,-3.222
38.42000000000007,82.974,-3.196
38.43199999999979,81.765,-3.946
38.45400000000063,80.137,-4.497
38.47600000000057,80.197,-3.546
38.488000000000284,79.063,-1.46
38.51000000000022,80.181,2.911
38.521999999999935,80.232,5.161
38.54399999999987,79.957,4.926
38.556000000000495,78.08,4.954
38.57800000000043,78.717,4.541
38.600000000000364,80.651,2.539
38.61200000000008,81.482,0.796
38.634000000000015,82.516,-0.598
38.64600000000064,83.089,-1.02
38.668000000000575,80.299,0.155
38.68000000000029,79.39,-2.083
38.702000000000226,81.706,-2.929
38.72400000000016,82.902,-3.593
38.735999999999876,83.864,-3.503
38.75799999999981,82.933,-3.688
38.77000000000044,82.444,-4.018
38.786998000000494,81.834,-4.187
38.8090000000002,82.163,-4.156
38.82099999999991,82.389,-4.044
38.84299999999985,81.876,-4.365
38.86499999999978,81.182,-4.256
38.87700000000041,78.863,-4.272
38.89900000000034,82.354,-3.014
38.91100000000006,82.148,-2.72
38.93299999999999,82.757,-2.405
38.94500000000062,83.255,-1.313
38.96700000000055,83.335,0.248
38.97900000000027,84.494,1.302
39.001000000000204,83.821,1.779
39.02300000000014,82.519,1.425
39.034999999999854,82.478,2.692
39.05699999999979,80.785,2.319
39.069000000000415,81.561,2.352
39.09100000000035,81.956,2.022
39.103000000000065,82.191,2.053
39.125,81.887,2.459
39.146999999999935,81.563,2.647
39.15900000000056,80.91,2.204
39.181000000000495,79.831,0.953
39.19300000000021,79.916,0.844
39.215000000000146,80.517,0.369
39.22699999999986,81.97,-0.896
39.248999999999796,81.064,-0.845
39.27100000000064,79.244,-1.662
39.28300000000036,78.739,-2.014
39.30500000000029,79.258,-2.566
39.31700000000001,79.732,-1.821
39.33899999999994,80.698,-1.237
39.35100000000057,80.836,-1.127
39.3730000000005,79.277,-0.931
39.38500000000022,78.608,-0.701
39.40700000000015,78.217,-0.031
39.42900000000009,79.017,0.824
39.4409999999998,80.551,1.724
39.46300000000065,80.11,2.296
39.475000000000364,78.499,3.417
39.4970000000003,78.021,2.947
39.509000000000015,78.853,2.961
39.53099999999995,78.739,3.017
39.552999999999884,79.141,2.358
39.56500000000051,79.782,2.583
39.587000000000444,78.975,3.431
39.59900000000016,77.531,4.844
39.621000000000095,77.116,5.171
39.63299999999981,77.169,4.814
39.655000000000655,77.082,4.701
39.66700000000037,77.372,3.452
39.689000000000306,77.905,2.748
39.71100000000024,78.349,2.288
39.722999999999956,77.97,1.968
39.74499999999989,77.537,1.791
39.75700000000052,79.021,1.332
39.77900000000045,79.012,1.67
39.79100000000017,79.77,1.652
39.8130000000001,79.201,2.691
39.835000000000036,78.725,3.411
39.84699999999975,78.863,4.611
39.8690000000006,78.701,5.195
39.88100000000031,77.739,4.957
39.90300000000025,77.85,4.359
39.914999999999964,78.651,3.422
39.9369999999999,79.199,3.497
39.95899999999983,78.908,2.666
39.97100000000046,78.112,2.174
39.99300000000039,77.992,1.351
40.00500000000011,78.674,1.045
40.027000000000044,79.144,1.113
40.03899999999976,79.868,1.067
40.061000000000604,79.78,1.671
40.07300000000032,78.73,3.046
40.095000000000255,77.703,3.906
40.11700000000019,77.447,5.741
40.128999999999905,77.747,6.219
40.15099999999984,77.779,7.284
40.163000000000466,77.616,6.932
40.1850000000004,77.61,6.589
40.197000000000116,76.841,6.781
40.21900000000005,78.069,6.414
40.240999999999985,77.967,6.105
40.25300000000061,77.367,7.573
40.275000000000546,76.393,8.481
40.28700000000026,76.441,9.414
40.3090000000002,75.619,10.699
40.32099999999991,75.824,10.569
40.34299999999985,76.421,10.017
40.36499999999978,76.226,10.286
40.37700000000041,76.279,10.722
40.39900000000034,76.526,11.315
40.41100000000006,75.72,11.878
40.43299999999999,75.525,11.664
40.44500000000062,75.65,11.17
40.46700000000055,76.689,10.922
40.47900000000027,76.776,11.071
40.501000000000204,76.658,9.404
40.52300000000014,77.853,8.783
40.534999999999854,78.187,7.313
40.55699999999979,78.931,8.289
40.569000000000415,80.137,5.978
40.59100000000035,81.93,5.668
40.603000000000065,79.737,7.649
40.625,79.412,8.964
40.646999999999935,78.905,8.747
40.65900000000056,82.199,4.353
40.681000000000495,84.881,2.09
40.69300000000021,84.597,0.645
40.715000000000146,83.142,-1.577
40.72699999999986,81.917,-3.37
40.748999999999796,81.724,-3.093
40.7612850000005,80.157,-1.966
40.78799799999979,77.607,-1.032
40.80000000000018,77.903,0.53
40.822000000000116,80.13,3.46
40.83399999999983,82.364,2.744
40.85599999999977,82.165,4.023
40.86800000000039,82.717,4.986
40.89000000000033,83.105,4.359
40.91200000000026,85.513,2.421
40.92399999999998,85.537,0.927
40.94599999999991,85.459,0.007
40.95800000000054,85.446,-0.337
40.98000000000047,85.503,-1.043
40.99200000000019,85.052,-0.199
41.014000000000124,84.227,0.973
41.02599999999984,84.769,1.182
41.047999999999774,84.236,1.352
41.07000000000062,83.817,1.48
41.082000000000335,83.472,0.816
41.10400000000027,84.337,0.905
41.115999999999985,84.641,1.28
41.13799999999992,84.831,1.987
41.150000000000546,84.668,1.676
41.17200000000048,84.916,0.79
41.194000000000415,85.137,0.727
41.20600000000013,85.39,0.703
41.228000000000065,85.096,0.079
41.23999999999978,84.305,-0.219
41.262000000000626,84.227,0.032
41.27400000000034,83.338,0.636
41.29600000000028,83.86,1.361
41.31800000000021,83.569,1.266
41.32999999999993,84.112,0.787
41.35199999999986,84.614,0.063
41.36400000000049,85.034,-0.377
41.38600000000042,84.019,0.256
41.39800000000014,83.588,0.063
41.42000000000007,82.911,0.572
41.43199999999979,82.605,0.627
41.45400000000063,82.715,0.793
41.47600000000057,82.587,-0.549
41.488000000000284,83.49,-1.015
41.51000000000022,82.795,-1.509
41.521999999999935,83.773,-2.012
41.54399999999987,85.171,-0.994
41.556000000000495,85.014,0.266
41.57800000000043,85.441,1.576
41.600000000000364,86.069,1.669
41.61200000000008,86.692,2.223
41.634000000000015,88.23,1.309
41.64600000000064,86.964,1.621
41.668000000000575,86.326,1.811
41.68000000000029,85.956,1.425
41.702000000000226,85.339,0.279
41.71399999999994,85.552,-0.158
41.735999999999876,85.227,-0.903
41.75799999999981,84.875,-1.229
41.77000000000044,85.566,-1.613
41.79200000000037,85.542,-1.668
41.80400000000009,84.402,-1.732
41.82600000000002,84.324,-0.871
41.83800000000065,86.204,-1.006
41.86000000000058,85.686,-1.859
41.88200000000052,84.606,-1.993
41.89400000000023,85.082,-2.424
41.91600000000017,84.013,-2.813
41.927999999999884,82.932,-2.718
41.94999999999982,84.409,-2.377
41.962000000000444,85.316,-2.217
41.98400000000038,85.424,-2.015
42.00600000000031,84.725,-2.437
42.01800000000003,84.269,-3.187
42.039999999999964,83.132,-4.144
42.05200000000059,81.954,-5.775
42.074000000000524,81.306,-6.113
42.08600000000024,82.19,-5.28
42.108000000000175,82.579,-5.012
42.11999999999989,82.058,-4.893
42.141999999999825,82.336,-4.882
42.16399999999976,82.701,-6.175
42.176000000000386,82.013,-5.699
42.19800000000032,79.315,-7.189
42.210000000000036,77.416,-6.968
42.23199999999997,79.8,-5.239
42.2440000000006,81.602,-5.061
42.26600000000053,81.333,-5.428
42.288000000000466,81.375,-5.586
42.30000000000018,80.457,-5.459
42.322000000000116,80.137,-5.875
42.33399999999983,81.272,-4.623
42.35599999999977,81.408,-4.19
42.36800000000039,81.93,-3.329
42.39000000000033,83.508,-2.675
42.41200000000026,82.939,-2.394
42.42399999999998,82.057,-3.156
42.44599999999991,81.261,-3.686
42.45800000000054,81.776,-4.244
42.48000000000047,80.888,-3.613
42.49200000000019,80.687,-3.065
42.514000000000124,81.138,-2.801
42.52599999999984,81.857,-2.797
42.547999999999774,80.88,-2.843
42.57000000000062,81.374,-2.88
42.582000000000335,80.892,-1.292
42.60400000000027,80.618,-0.631
42.615999999999985,80.352,-0.112
42.63799999999992,81.24,-0.856
42.650000000000546,81.552,-1.659
42.67200000000048,80.44,-2.155
42.694000000000415,80.681,-1.63
42.70600000000013,80.106,-1.381
42.728000000000065,80.449,-1.976
42.73999999999978,82.534,-1.834
42.762000000000626,82.265,-1.667
42.77400000000034,79.266,-2.012
42.7909980000004,79.724,-2.269
42.8130000000001,78.266,-3.659
42.835000000000036,81.786,-2.188
42.84699999999975,83.502,-1.339
42.8690000000006,82.859,-1.483
42.88100000000031,81.722,1.736
42.90300000000025,82.997,0.657
42.914999999999964,83.502,0.197
42.9369999999999,83.585,-0.102
42.95899999999983,82.976,-1.868
42.97100000000046,82.647,-2.658
42.99300000000039,82.857,-2.719
43.00500000000011,83.571,-2.854
43.027000000000044,82.984,-3.218
43.03899999999976,82.666,-3.382
43.061000000000604,83.104,-3.319
43.07300000000032,82.977,-3.245
43.095000000000255,83.946,-2.926
43.11700000000019,83.958,-3.301
43.128999999999905,81.921,-2.955
43.15099999999984,82.543,-2.767
43.163000000000466,83.752,-3.041
43.1850000000004,84.406,-2.359
43.197000000000116,84.378,-1.832
43.21900000000005,83.729,-1.783
43.240999999999985,83.532,-1.628
43.25300000000061,83.805,-2.015
43.275000000000546,83.858,-2.16
43.28700000000026,84.563,-2.234
43.3090000000002,85.441,-2.118
43.32099999999991,85.292,-2.402
43.34299999999985,84.095,-2.185
43.35528500000055,85.439,-1.514
43.37700000000041,86.065,-1.317
43.39900000000034,87.29,-0.923
43.41100000000006,86.188,-2.327
43.43299999999999,86.239,-2.134
43.44500000000062,86.76,-2.18
43.46700000000055,86.995,-2.081
43.47900000000027,86.24,-2.036
43.501000000000204,86.825,-1.24
43.52300000000014,85.959,-0.163
43.534999999999854,84.41,-0.517
43.55699999999979,81.28,-1.16
43.569000000000415,80.64,-1.246
43.59100000000035,80.6,-0.96
43.603000000000065,79.052,-1.215
43.625,78.743,-1.776
43.646999999999935,78.689,-1.962
43.65900000000056,78.666,-2.566
43.681000000000495,77.746,-2.305
43.69300000000021,77.722,-3.057
43.715000000000146,77.169,-3.057
43.72699999999986,77.818,-3.027
43.748999999999796,77.842,-2.973
43.76100000000042,78.188,-1.664
43.78300000000036,78.399,-1.448
43.80500000000029,78.65,-1.303
43.81700000000001,78.173,-0.762
43.83899999999994,78.18,-1.036
43.85100000000057,77.971,-0.838
43.8730000000005,77.819,-0.84
43.89500000000044,77.45,-0.555
43.90700000000015,78.033,-0.509
43.92900000000009,78.557,-0.267
43.9409999999998,77.628,-0.044
43.96300000000065,77.353,-0.242
43.975000000000364,77.518,-0.535
43.9970000000003,79.211,-1.764
44.009000000000015,78.556,-1.301
44.03099999999995,77.818,-1.012
44.052999999999884,77.532,-1.134
44.06500000000051,78.232,-0.411
44.087000000000444,77.957,-0.268
44.09900000000016,78.3,-0.24
44.121000000000095,80.177,-0.074
44.13299999999981,80.314,0.432
44.155000000000655,79.975,-4.261
44.16700000000037,82.121,-0.51
44.189000000000306,80.844,1.388
44.21100000000024,80.256,2.605
44.222999999999956,78.806,3.316
44.24499999999989,80.21,4.586
44.25700000000052,78.255,3.52
44.27900000000045,78.328,3.404
44.29100000000017,78.513,4.198
44.3130000000001,78.334,2.481
44.335000000000036,77.218,1.864
44.34699999999975,76.866,1.68
44.3690000000006,77.029,0.318
44.38100000000031,73.457,1.762
44.40300000000025,76.688,5.112
44.414999999999964,66.253,6.023
44.4369999999999,73.176,-5.455
44.45899999999983,62.194,-0.554
44.47100000000046,56.252,-0.174
44.49300000000039,56.369,3.633
44.50500000000011,59.029,7.011
44.527000000000044,57.274,4.96
44.53899999999976,56.772,2.434
44.561000000000604,55.934,0.771
44.57300000000032,56.758,-1.559
44.595000000000255,52.803,0.678
44.61700000000019,54.727,-2.623
44.628999999999905,56.111,-1.886
44.65099999999984,53.896,-3.858
44.663000000000466,53.288,-5.997
44.6850000000004,51.644,-7.978
44.697000000000116,50.062,-9.745
44.71900000000005,48.077,-10.582
44.740999999999985,48.02,-10.818
44.75300000000061,49.484,-11.915
44.775000000000546,49.933,-13.04
44.7919980000006,46.067,-15.483
44.80400000000009,45.434,-14.93
44.82600000000002,42.917,-16.011
44.847999999999956,44.528,-16.033
44.86000000000058,43.526,-16.383
44.88200000000052,43.627,-16.673
44.89400000000023,43.62,-16.621
44.91600000000017,42.841,-17.164
44.927999999999884,41.905,-17.095
44.94999999999982,42.375,-16.85
44.962000000000444,42.18,-17.344
44.98400000000038,41.84,-17.688
44.996000000000095,41.108,-18.311
45.01800000000003,41.876,-18.063
45.039999999999964,40.612,-17.677
45.05200000000059,41.41,-17.611
45.074000000000524,40.427,-18.295
45.08600000000024,39.185,-19.131
45.108000000000175,38.128,-20.724
45.11999999999989,38.298,-21.459
45.141999999999825,37.28,-21.413
45.16399999999976,38.803,-21.26
45.176000000000386,37.358,-22.271
45.19800000000032,38.066,-21.938
45.210000000000036,37.914,-22.616
45.23199999999997,37.551,-22.558
45.2440000000006,37.879,-21.878
45.26600000000053,39.117,-21.73
45.288000000000466,40.659,-20.911
45.30000000000018,41.176,-20.734
45.322000000000116,40.369,-21.72
45.33399999999983,40.509,-22.682
45.35599999999977,39.749,-23.173
45.36800000000039,39.342,-23.603
45.39000000000033,39.576,-23.906
45.402000000000044,39.044,-23.571
45.42399999999998,39.102,-22.698
45.44599999999991,38.072,-21.447
45.45800000000054,37.046,-21.782
45.48000000000047,36.814,-21.776
45.49200000000019,35.54,-22.217
45.514000000000124,35.692,-21.396
45.52599999999984,36.14,-20.953
45.547999999999774,37.047,-19.952
45.57000000000062,37.556,-19.555
45.582000000000335,38.983,-18.221
45.60400000000027,39.176,-17.324
45.615999999999985,39.202,-16.961
45.63799999999992,38.514,-16.518
45.650000000000546,38.747,-15.527
45.67200000000048,39.522,-12.376
45.694000000000415,41.89,-10.273
45.70600000000013,40.024,-8.949
45.728000000000065,40.02,-10.024
45.73999999999978,40.362,-12.904
45.762000000000626,41.436,-13.085
45.77400000000034,42.329,-15.5
45.79600000000028,52.757,-22.789
45.80799999999999,37.628,-17.296
45.82999999999993,46.837,-9.553
45.85199999999986,47.26,-7.994
45.86400000000049,54.125,-4.865
45.88600000000042,58.983,-1.497
45.89800000000014,60.281,-2.315
45.92000000000007,59.572,-3.774
45.93199999999979,61.527,-4.326
45.95400000000063,61.444,-3.647
45.97600000000057,63.647,-2.749
45.988000000000284,62.044,-3.158
46.01000000000022,60.739,-0.972
46.021999999999935,59.03,1.21
46.04399999999987,59.827,1.019
46.056000000000495,60.486,-0.221
46.07800000000043,63.746,-0.219
46.09028500000022,65.298,1.269
46.113000000000284,66.099,3.177
46.13500000000022,68.717,4.751
46.146999999999935,71.178,3.374
46.16899999999987,71.87,1.966
46.181000000000495,71.268,1.436
46.20300000000043,69.749,0.51
46.215000000000146,72.283,0.974
46.23700000000008,78.229,-0.599
46.24928499999987,80.961,-2.168
46.27100000000064,80.777,-2.271
46.293000000000575,78.011,-0.616
46.30500000000029,74.797,0.643
46.327000000000226,75.253,3.92
46.33899999999994,82.438,3.581
46.360999999999876,83.613,1.661
46.3730000000005,83.419,3.091
46.39500000000044,80.755,4.916
46.41700000000037,81.331,4.981
46.42900000000009,85.008,3.718
46.45100000000002,82.228,1.27
46.46300000000065,77.29,-0.631
46.48500000000058,76.297,0.8
46.4970000000003,77.976,0.4
46.51900000000023,81.119,0.467
46.54100000000017,82.515,-0.521
46.552999999999884,82.74,-1.041
46.57499999999982,79.697,-0.601
46.587000000000444,78.796,-0.724
46.60900000000038,77.276,-0.673
46.621000000000095,76.269,-0.695
46.64300000000003,75.778,-1.492
46.655000000000655,76.216,-2.145
46.67700000000059,72.9,-3.055
46.699000000000524,76.325,-2.295
46.71100000000024,76.854,-2.591
46.733000000000175,74.64,-2.971
46.74499999999989,76.01,-3.07
46.766999999999825,75.455,-3.89
46.77900000000045,75.913,-6.476
46.806000000000495,75.647,-7.064
46.81800000000021,75.54,-6.182
46.840000000000146,80.677,-4.306
46.85199999999986,78.315,-8.648
46.873999999999796,78.39,-10.378
46.88600000000042,76.525,-11.699
46.90800000000036,75.177,-12.648
46.93000000000029,77.88,-11.418
46.94200000000001,81.629,-7.183
46.96399999999994,81.713,-7.934
46.97600000000057,81.182,-8.714
46.9980000000005,82.896,-6.615
47.01000000000022,78.17,-7.195
47.03200000000015,78.904,-8.703
47.04399999999987,78.242,-6.132
47.0659999999998,78.053,-7.609
47.08800000000065,76.883,-10.261
47.100000000000364,69.971,-12.133
47.1220000000003,71.202,-7.007
47.134000000000015,71.687,-5.985
47.15599999999995,71.746,-3.037
47.168000000000575,64.459,-2.906
47.19000000000051,69.824,-2.223
47.202000000000226,71.994,-2.058
47.22400000000016,67.415,-2.98
47.246000000000095,66.144,-1.743
47.25799999999981,63.724,0.646
47.280000000000655,68.492,0.613
47.29200000000037,63.936,0.29
47.314000000000306,66.44,0.62
47.32600000000002,62.769,2.31
47.347999999999956,59.939,4.977
47.36999999999989,54.633,8.736
47.38200000000052,58.274,3.557
47.40400000000045,59.885,2.368
47.41600000000017,60.209,3.822
47.4380000000001,59.09,5.087
47.44999999999982,54.075,6.659
47.47199999999975,56.225,6.663
47.4940000000006,54.718,8.952
47.50600000000031,58.159,7.868
47.52800000000025,57.561,6.998
47.539999999999964,56.839,7.439
47.5619999999999,56.303,8.837
47.574000000000524,53.369,11.251
47.59600000000046,52.226,13.479
47.608000000000175,52.448,11.276
47.63000000000011,53.091,10.822
47.652000000000044,52.182,11.246
47.66399999999976,55.361,14.406
47.686000000000604,53.564,15.836
47.69800000000032,50.207,15.19
47.720000000000255,40.277,40.201
47.74200000000019,43.78,12.884
47.753999999999905,49.112,4.514
47.77599999999984,50.269,5.332
47.788000000000466,49.589,11.493
47.8100000000004,55.043,13.786
47.822000000000116,52.74,13.629
47.84400000000005,47.878,10.712
47.85599999999977,51.089,8.082
47.87800000000061,50.673,8.946
47.900000000000546,48.115,10.773
47.91200000000026,48.307,14.46
47.9340000000002,45.243,17.683
47.94599999999991,46.217,18.872
47.96799999999985,44.557,20.355
47.98000000000047,46.947,18.26
48.00200000000041,47.298,18.744
48.02400000000034,47.66,18.753
48.03600000000006,47.525,17.624
48.05799999999999,46.741,18.164
48.07000000000062,47.363,18.351
48.09200000000055,49.815,17.493
48.10400000000027,49.8,17.203
48.126000000000204,48.151,17.844
48.13799999999992,47.847,18.794
48.159999999999854,47.98,19.809
48.18199999999979,47.128,19.499
48.194000000000415,46.299,19.351
48.21600000000035,46.483,18.663
48.228000000000065,47.251,18.138
48.25,47.905,17.413
48.262000000000626,47.451,17.492
48.28400000000056,47.696,17.592
48.29600000000028,48.112,16.777
48.31800000000021,47.318,17.619
48.340000000000146,46.741,17.469
48.35199999999986,46.734,16.849
48.373999999999796,46.176,17.669
48.38600000000042,47.074,18.204
48.40800000000036,45.968,18.168
48.42000000000007,47.345,18.362
48.44200000000001,45.171,18.77
48.46399999999994,44.938,19.727
48.47600000000057,44.122,18.585
48.4980000000005,44.321,18.697
48.51000000000022,46.774,17.808
48.53200000000015,47.985,17.174
48.54399999999987,48.925,17.777
48.5659999999998,49.574,17.299
48.58800000000065,52.07,16.749
48.600000000000364,51.094,16.655
48.6220000000003,51.263,15.017
48.634000000000015,50.103,14.076
48.65599999999995,48.376,13.213
48.668000000000575,51.419,10.669
48.69000000000051,52.98,10.655
48.702000000000226,50.032,6.72
48.72400000000016,51.537,7.269
48.746000000000095,54.661,7.657
48.75799999999981,51.24,1.407
48.780000000000655,57.269,2.185
48.7969979999998,56.483,8.717
48.8090000000002,61.681,7.349
48.83100000000013,57.792,3.245
48.84299999999985,59.457,5.645
48.86499999999978,56.575,6.615
48.887000000000626,59.857,4.514
48.89900000000034,60.627,5.109
48.92100000000028,61.886,4.633
48.93299999999999,61.287,6.015
48.95499999999993,62.097,7.156
48.96700000000055,63.079,7.471
48.98900000000049,62.068,7.726
49.01100000000042,62.897,6.661
49.02300000000014,65.533,6.278
49.04500000000007,67.45,5.109
49.05699999999979,68.388,4.235
49.07900000000063,71.709,1.81
49.09100000000035,72.826,4.547
49.113000000000284,75.77,6.036
49.13500000000022,76.829,6.749
49.146999999999935,77.821,6.011
49.16899999999987,78.929,4.665
49.181000000000495,79.038,4.359
49.20300000000043,78.117,5.006
49.215000000000146,76.613,6.47
49.23700000000008,77.129,6.594
49.248999999999796,75.255,5.217
49.27100000000064,73.388,2.857
49.293000000000575,69.326,1.786
49.30500000000029,67.85,1.356
49.327000000000226,67.634,-0.471
49.33899999999994,68.009,0.161
49.360999999999876,66.992,0.868
49.3730000000005,65.263,-0.91
49.39500000000044,66.831,-1.491
49.41700000000037,69.039,2.137
49.42900000000009,70.467,5.677
49.45100000000002,72.568,5.199
49.46300000000065,70.822,4.714
49.48500000000058,70.971,4.972
49.4970000000003,70.498,5.761
49.51900000000023,70.686,5.59
49.54100000000017,68.247,6.035
49.552999999999884,67.057,4.645
49.57499999999982,66.421,6.671
49.587000000000444,66.528,9.53
49.60900000000038,65.537,11.91
49.621000000000095,65.833,11.022
49.64300000000003,66.08,12.202
49.655000000000655,64.318,12.996
49.67700000000059,62.245,12.517
49.699000000000524,63.336,11.92
49.71100000000024,64.997,11.671
49.733000000000175,65.836,7.311
49.74499999999989,67.411,1.915
49.766999999999825,65.353,2.326
49.77900000000045,62.246,1.713
49.801000000000386,57.836,1.647
49.82300000000032,62.431,-5.332
49.835000000000036,63.972,-11.048
49.85699999999997,65.873,-15.169
49.8690000000006,65.627,-10.173
49.89100000000053,69.208,-5.765
49.90300000000025,66.799,2.343
49.92500000000018,70.914,2.943
49.93729100000019,76.176,4.293
49.960000000000036,79.59,-2.568
49.98199999999997,81.592,-4.193
49.9940000000006,77.945,-7.364
50.01600000000053,61.559,-13.842
50.02800000000025,73.712,-10.655
50.05000000000018,78.785,-8.261
50.0619999999999,81.097,-6.564
50.08399999999983,77.945,-11.4
50.09600000000046,80.692,-5.5
50.11800000000039,75.74,-12.275
50.14000000000033,72.835,-15.319
50.152000000000044,77.639,-11.264
50.17399999999998,78.323,-10.1
50.186000000000604,80.073,-9.431
50.20800000000054,79.694,-10.233
50.220000000000255,77.622,-12.046
50.24200000000019,76.33,-13.434
50.264000000000124,75.213,-13.461
50.27599999999984,73.456,-12.513
50.297999999999774,70.935,-13.519
50.3100000000004,69.003,-15.832
50.332000000000335,67.753,-13.867
50.34400000000005,70.513,-7.664
50.365999999999985,63.197,-14.08
50.38799999999992,57.236,-19.393
50.400000000000546,55.352,-22.453
50.42200000000048,56.348,-23.537
50.4340000000002,64.114,-17.333
50.45600000000013,60.465,-23.192
50.46799999999985,50.596,-26.642
50.48999999999978,40.468,-22.375
50.50200000000041,41.361,-28.536
50.52400000000034,38.876,-31.86
50.54600000000028,38.181,-36.536
50.55799999999999,35.626,-37.169
50.57999999999993,31.598,-38.083
50.59200000000055,29.147,-32.794
50.61400000000049,25.021,-33.119
50.63600000000042,24.86,-36.326
50.64800000000014,23.436,-34.759
50.67000000000007,22.737,-32.814
50.68199999999979,22.165,-34.895
50.70400000000063,21.821,-35.009
50.71600000000035,22.462,-36.169
50.738000000000284,21.342,-36.754
50.75,20.671,-34.276
50.771999999999935,20.554,-35.439
50.79899800000021,20.38,-39.782
50.811000000000604,19.901,-40.174
50.82300000000032,19.174,-40.556
50.845000000000255,17.819,-40.838
50.85699999999997,16.354,-40.99
50.878999999999905,15.416,-39.564
50.89100000000053,14.048,-44.036
50.913000000000466,10.242,-44.948
50.9350000000004,8.613,-46.446
50.947000000000116,8.44,-48.618
50.96900000000005,8.485,-49.027
50.98099999999977,7.771,-45.954
51.00300000000061,6.998,-44.97
51.01500000000033,4.898,-45.572
51.03700000000026,4.223,-46.885
51.04899999999998,4.821,-48.12
51.07099999999991,5.534,-47.322
51.09299999999985,4.004,-46.202
51.10500000000047,3.838,-47.108
51.12700000000041,3.334,-47.704
51.139000000000124,3.237,-46.888
51.16100000000006,2.244,-43.423
51.172999999999774,6.65,-36.114
51.19500000000062,4.398,-43.621
51.21700000000055,0.818,-42.781
51.22900000000027,-0.175,-43.67
51.251000000000204,-0.76,-40.926
51.26299999999992,2.141,-36.451
51.284999999999854,4.555,-36.292
51.29700000000048,2.828,-32.722
51.319000000000415,-0.118,-33.244
51.33100000000013,0.106,-33.564
51.353000000000065,-0.112,-29.298
51.375,0.235,-24.058
51.387000000000626,1.076,-21.878
51.40900000000056,1.061,-19.693
51.42100000000028,1.87,-21.875
51.44300000000021,4.546,-30.291
51.45499999999993,3.33,-22.931
51.47699999999986,2.225,-24.466
51.498999999999796,7.714,-25.843
51.51100000000042,1.324,-4.091
51.53300000000036,0.822,-1.893
51.54500000000007,0.969,-0.642
51.56700000000001,-0.158,0.505
51.57900000000063,-0.158,0.271
51.60100000000057,-0.082,0.124
51.6230000000005,-0.084,0.308
51.63500000000022,-0.203,1.375
51.65700000000015,1.62,10.29
51.66899999999987,0.191,4.518
51.6909999999998,-0.227,1.812
51.70300000000043,-0.39,0.735
51.725000000000364,-0.031,0.124
51.73700000000008,0.267,0.284
51.759000000000015,0.157,0.513
51.78099999999995,-0.224,0.588
51.793000000000575,0.259,0.415
51.81500000000051,0.292,0.351
51.827000000000226,0.068,0.212
51.84900000000016,0.069,0.202
51.860999999999876,-0.04,0.298
51.88299999999981,-0.026,0.411
51.905000000000655,-0.221,0.443
51.91700000000037,-0.153,0.166
51.939000000000306,-0.403,0.073
51.95100000000002,-0.126,0.211
51.972999999999956,-0.164,0.37
51.98500000000058,-0.186,0.348
52.00700000000052,-0.174,0.317
52.02900000000045,-0.071,0.293
52.04100000000017,0.076,0.24
52.0630000000001,0.046,0.296
52.07499999999982,-0.031,0.256
52.09699999999975,0.095,0.163
52.10900000000038,0.034,0.085
52.13100000000031,-0.047,0.335
52.14300000000003,0.016,0.498
52.164999999999964,0.079,0.774
52.1869999999999,-0.073,0.198
52.199000000000524,0.837,-2.287
52.22100000000046,0.117,-0.654
52.233000000000175,0.023,0.06
52.25500000000011,-0.08,0.301
52.266999999999825,0.052,0.099
52.28899999999976,0.132,0.101
52.311000000000604,0.158,0.316
52.32300000000032,0.139,0.291
52.345000000000255,0.094,0.453
52.35699999999997,0.022,0.436
52.378999999999905,-0.041,0.242
52.39100000000053,0.083,0.353
52.413000000000466,0.062,0.165
52.4350000000004,-0.132,0.082
52.447000000000116,0.111,0.247
52.46900000000005,-0.119,0.317
52.48099999999977,-0.129,0.319
52.50300000000061,-0.02,0.419
52.51500000000033,-0.022,0.306
52.53700000000026,-0.13,0.268
52.54899999999998,-0.062,0.128
52.57099999999991,-0.023,0.327
52.59299999999985,0.012,0.239
52.60500000000047,0.156,0.464
52.62700000000041,0.133,0.493
52.639000000000124,-0.051,0.28
52.66100000000006,0.143,0.381
52.672999999999774,0.073,0.237
52.69500000000062,0.091,0.354
52.71700000000055,-0.157,0.141
52.72900000000027,-0.013,0.357
52.751000000000204,-0.101,0.474
52.76299999999992,-0.025,0.304
52.784999999999854,0.05,0.179
52.80199799999991,0.071,0.045
52.814000000000306,-0.017,0.029
52.83600000000024,-0.029,0.157
52.858000000000175,-0.22,0.301
52.86999999999989,0.044,0.38
52.891999999999825,0.066,0.29
52.90400000000045,0.121,0.146
52.926000000000386,0.156,0.258
