Time,Phi (degrees),Theta (degrees)
0.00000,0.00000,0.00000
0.01200,0.75263,0.76494
0.03400,2.01143,1.82264
0.04628,2.46654,2.37731
0.06800,3.17945,2.72279
0.09000,3.84955,2.33785
0.10200,4.20577,2.27101
0.12400,4.78960,2.47331
0.13600,5.01604,2.63071
0.15800,5.40783,2.69524
0.17000,5.59028,2.53912
0.19200,5.81460,3.17905
0.21400,6.13660,3.69414
0.22600,6.27985,3.78087
0.24800,6.57015,3.06910
0.26000,6.65463,2.90528
0.28200,7.01520,2.14773
0.29400,6.99456,2.34308
0.31600,7.04270,2.13060
0.33800,6.92819,1.45668
0.35000,6.94459,0.61770
0.37200,6.82027,-0.16574
0.38400,6.71598,-0.48163
0.40600,6.48260,-1.21439
0.41800,6.42128,-1.77962
0.44000,6.57585,-3.15567
0.45200,6.72995,-3.64702
0.47400,6.92788,-4.58789
0.49600,7.08072,-6.22290
0.50800,7.23368,-7.19570
0.53000,7.52642,-8.07994
0.54200,7.71466,-8.52063
0.56400,7.88710,-9.54230
0.58600,7.99346,-10.47867
0.59800,8.04003,-11.17105
0.62000,8.11692,-12.04146
0.63200,8.30779,-12.41183
0.65400,8.62111,-12.82605
0.66600,8.68413,-13.08761
0.68800,8.87649,-14.21140
0.70000,8.85841,-14.65631
0.72200,9.02284,-15.72186
0.74400,9.10038,-16.48936
0.75600,9.17703,-17.02501
0.77800,9.12911,-18.37477
0.79000,9.02834,-19.11459
0.81200,8.58034,-20.61434
0.82400,8.26797,-21.63688
0.84600,7.63554,-23.96737
0.85800,7.39090,-25.18367
0.88000,6.89540,-27.14038
0.90200,6.15280,-27.95521
0.91400,5.83437,-28.38144
0.93600,5.25552,-29.22142
0.94800,5.01422,-29.92978
0.97000,4.25503,-31.71364
0.98200,3.66075,-32.77642
1.00400,2.88855,-34.85537
1.02600,2.20292,-36.09141
1.03800,1.75753,-36.53941
1.06000,0.90831,-37.66908
1.07200,0.46159,-38.40203
1.09400,-0.33165,-39.81026
1.10600,-0.73971,-40.59542
1.12800,-1.69865,-42.08207
1.15000,-2.66724,-44.11544
1.16200,-3.37314,-44.49213
1.18400,-5.17003,-44.90420
1.19600,-6.10102,-45.24869
1.21800,-8.10131,-46.42773
1.23000,-9.17378,-47.21087
1.25200,-10.79913,-48.54638
1.26400,-11.76266,-49.13896
1.28600,-13.62846,-50.72206
1.30800,-15.59372,-51.96024
1.32000,-16.80596,-52.65743
1.34200,-20.23324,-54.37603
1.35400,-22.19075,-55.57311
1.37600,-25.91070,-57.73521
1.38800,-26.87764,-58.00642
1.41000,-27.54151,-57.62253
1.43200,-28.06501,-56.95723
1.44400,-28.32317,-56.45195
1.46600,-29.02285,-55.24619
1.47800,-29.31891,-54.64562
1.50000,-29.99261,-53.75114
1.51200,-30.48142,-53.38358
1.53400,-31.29213,-52.74428
1.54600,-31.57502,-52.21460
1.56800,-31.98003,-51.08325
1.59000,-32.36257,-49.54459
1.60200,-32.66732,-48.84698
1.62400,-33.33733,-47.44995
1.63600,-33.89759,-46.95972
1.65800,-34.75038,-45.67787
1.68000,-35.16495,-44.21973
1.69200,-35.32235,-43.38667
1.71400,-35.94648,-41.75455
1.72600,-36.29799,-41.16294
1.74800,-36.76985,-39.96958
1.76000,-36.98013,-39.04457
1.78200,-37.77044,-38.08787
1.79400,-37.86627,-37.43808
1.81100,-37.79210,-36.47639
1.83300,-38.33522,-35.29510
1.85500,-39.03959,-34.74978
1.86700,-39.32434,-34.11286
1.88900,-39.84138,-32.69934
1.90100,-39.83734,-31.89919
1.92300,-39.49677,-30.68450
1.93500,-38.93486,-29.94027
1.95700,-37.97973,-28.23915
1.97900,-37.23576,-26.47918
1.99100,-36.99706,-25.70959
2.01300,-36.45189,-24.73868
2.02500,-36.18408,-24.49765
2.04700,-35.41659,-23.73771
2.05900,-35.03409,-22.98663
2.08100,-33.96915,-21.09746
2.09300,-33.38428,-20.22867
2.11500,-32.33361,-18.99438
2.13700,-31.32348,-17.86495
2.14900,-30.88000,-17.27864
2.17100,-29.93948,-15.88802
2.18300,-29.57700,-14.66364
2.20500,-29.22921,-12.54130
2.21700,-28.83747,-11.37816
2.23900,-28.51319,-8.61509
2.26100,-28.22142,-7.40492
2.27300,-28.08051,-6.95545
2.29500,-27.64513,-4.74148
2.30700,-27.12141,-3.90736
2.32900,-26.19347,-2.93128
2.34100,-25.62746,-2.51681
2.36300,-24.61929,-1.86726
2.37500,-24.45953,-1.49095
2.39700,-23.65430,-0.70901
2.41900,-22.58234,0.57017
2.43100,-21.82668,0.95670
2.45300,-20.43476,2.15978
2.46500,-19.53756,2.60022
2.48700,-18.69074,4.27848
2.49900,-17.99676,5.15564
2.52100,-16.84613,6.70546
2.54300,-15.53184,6.91967
2.55500,-14.68699,6.95378
2.57700,-13.38703,7.29440
2.58900,-12.71234,7.46662
2.61100,-11.52637,7.30335
2.62300,-10.86864,7.33376
2.64500,-9.49022,8.31231
2.66700,-8.12291,10.58789
2.67900,-7.55395,11.89137
2.70100,-7.40389,17.13690
2.71300,-7.07256,18.10171
2.73500,-6.05922,19.16001
2.74700,-5.40214,19.27165
2.76900,-4.81547,21.46570
2.78100,-4.07226,22.27628
2.80300,-2.86585,24.80463
2.82500,-1.69086,27.20218
2.83700,-1.15691,27.94277
2.85900,-0.30194,28.44470
2.87100,0.32827,28.56849
2.89300,1.58602,28.60853
2.90500,2.19166,28.64450
2.92700,3.19760,28.85577
2.94900,4.22109,29.20139
2.96100,4.85514,29.51456
2.98300,6.24024,29.89190
2.99500,6.85694,29.78539
3.01700,7.92754,29.41027
3.02900,8.53790,29.24650
3.05100,9.78760,29.39612
3.07300,10.95308,29.53648
3.08500,11.51349,29.63163
3.10700,12.45136,29.86939
3.11900,12.90483,29.99208
3.14100,13.92137,30.25727
3.15300,14.52532,30.49795
3.17500,15.58565,31.54219
3.18700,16.22538,32.49001
3.20900,17.31818,33.82917
3.23100,18.35245,34.52473
3.24300,18.82767,34.63960
3.26500,19.59641,34.76745
3.27700,19.94922,34.79578
3.29900,20.57935,34.98913
3.31100,20.95033,35.17752
3.33300,21.50704,35.57336
3.35500,21.99576,35.94987
3.36700,22.28724,36.04191
3.38900,22.62082,35.90799
3.40100,22.77371,36.07386
3.42300,23.25918,36.78061
3.43500,23.54769,37.26020
3.45700,24.33624,38.77756
3.46900,24.55323,39.53955
3.49100,24.82356,40.30899
3.51300,25.09299,41.41177
3.52500,25.30750,42.22609
3.54700,25.89553,43.96871
3.55900,26.16022,45.01706
3.58100,26.62119,46.91806
3.60300,27.30909,49.49617
3.61500,27.31411,50.36050
3.63700,27.16117,51.42444
3.64900,26.85565,51.77238
3.67100,26.04805,52.48330
3.68300,25.57626,52.81969
3.70500,24.69367,53.61248
3.71700,24.26370,54.05608
3.73900,23.39043,54.69059
3.76100,22.25606,55.11359
3.77300,21.60493,55.34957
3.79500,20.18126,55.94342
3.81200,19.11458,56.48080
3.82400,18.32110,56.83432
3.84600,16.76636,57.35696
3.85800,15.97944,57.61390
3.88000,14.13978,57.91900
3.90200,12.10401,58.13987
3.91400,11.03742,58.32253
3.93600,8.86023,58.60634
3.94800,7.56884,58.69283
3.97000,5.40209,58.84352
3.98200,4.29295,58.96040
4.00400,2.60264,59.90473
4.02600,0.37565,60.08669
4.03800,-0.78166,60.15473
4.06000,-2.95381,60.39717
4.07200,-4.14153,60.47034
4.09400,-5.88092,60.62183
4.10600,-6.77393,60.56553
4.12800,-8.33072,60.55109
4.14000,-9.39119,60.60619
4.16200,-11.21141,60.51461
4.18400,-13.09843,60.29079
4.19600,-14.06925,60.18335
4.21800,-15.83600,59.72401
4.23000,-16.65343,59.37389
4.25200,-18.02939,58.71492
4.27400,-19.41778,57.91119
4.28600,-20.20914,57.57359
4.30800,-21.55773,56.78398
4.32000,-22.19364,56.38015
4.34200,-23.30863,55.56240
4.35400,-23.92598,55.18205
4.37600,-25.09963,54.49258
4.38800,-25.57149,54.03141
4.41000,-26.42492,53.12437
4.42200,-27.04436,52.68620
4.44400,-28.48702,51.67118
4.46600,-29.67900,50.38892
4.47800,-30.22650,49.66883
4.50000,-31.26512,48.50373
4.51200,-31.90121,47.90051
4.53400,-32.98175,46.73796
4.54600,-33.41734,46.11139
4.56800,-33.87183,44.71235
4.59000,-34.28048,43.30300
4.60200,-34.58855,42.64685
4.62400,-35.37234,41.55283
4.63600,-35.65434,40.91486
4.65800,-36.01603,39.70617
4.67000,-36.16702,39.08508
4.69200,-36.32166,37.86144
4.71400,-36.40925,36.56382
4.72600,-36.45729,35.92908
4.74800,-36.26534,34.76027
4.76000,-36.04348,34.12270
4.78200,-35.50659,33.03938
4.79400,-35.22382,32.45155
4.81600,-34.74222,31.21684
4.82800,-34.39597,30.46724
4.85000,-33.45019,29.04875
4.87200,-32.57459,27.68030
4.88400,-32.11655,26.92687
4.90600,-31.25588,25.78192
4.91800,-30.65481,24.95538
4.94000,-29.59769,23.71950
4.95200,-29.02763,23.04166
4.97400,-27.91698,21.83904
4.99600,-26.70659,20.39516
5.00800,-26.02862,19.47340
5.03000,-24.95372,17.72721
5.04200,-24.38124,16.70859
5.06400,-23.33466,14.88084
5.07600,-22.72084,13.90407
5.09800,-21.52435,12.55983
5.11000,-20.82507,11.77071
5.13200,-19.59946,10.54734
5.15400,-18.45799,9.42273
5.16600,-17.77420,8.89948
5.18800,-16.39960,8.00412
5.20000,-15.58968,7.38975
5.22200,-14.11087,5.97044
5.23400,-13.36987,5.09605
5.25600,-12.14649,3.52446
5.27800,-11.23971,1.83586
5.29000,-10.80505,0.58360
5.31200,-10.03101,-1.56746
5.32400,-9.68934,-2.68393
5.34600,-8.92316,-4.00062
5.35800,-8.55705,-4.48071
5.38000,-7.86688,-5.44204
5.40200,-7.11810,-6.75728
5.41400,-6.77971,-7.46651
5.43600,-6.16245,-8.45567
5.44800,-5.81223,-9.02072
5.47000,-5.13123,-10.31684
5.48200,-4.72231,-10.98671
5.50400,-4.04974,-11.83162
5.51600,-3.77586,-12.22709
5.53800,-3.32935,-12.70391
5.56000,-2.69238,-13.53961
5.57200,-2.30411,-14.16239
5.59400,-1.56672,-15.17377
5.60600,-1.12017,-15.57648
5.62800,-0.11555,-15.85719
5.64000,0.36635,-15.93308
5.66200,0.95615,-16.04951
5.68400,1.40781,-16.25658
5.69600,1.53259,-16.50308
5.71800,1.72776,-16.82664
5.73000,1.76749,-16.87120
5.75200,1.71869,-16.91153
5.76400,1.64762,-17.13765
5.78600,1.59549,-17.69127
5.81300,1.51504,-18.19931
5.82500,1.50301,-18.32515
5.83700,1.46855,-18.48816
5.85900,1.50516,-18.77516
5.87100,1.49710,-18.95216
5.89300,1.54350,-19.35072
5.90500,1.50832,-19.45409
5.92700,1.45252,-19.53086
5.94900,1.40730,-19.63074
5.96100,1.44720,-19.77187
5.98300,1.39022,-20.08136
5.99500,1.31115,-20.24080
6.01700,1.16528,-20.38671
6.02900,1.00771,-20.49206
6.05100,0.66187,-20.61817
6.06300,0.48255,-20.80295
6.08500,0.03721,-21.32117
6.10700,-0.49052,-21.76605
6.11900,-0.84012,-21.90979
6.14100,-1.45800,-22.21206
6.15300,-1.92326,-22.38410
6.17500,-2.74863,-22.72550
6.18700,-3.17449,-22.94666
6.20900,-3.79877,-23.14495
6.23100,-4.24333,-23.50752
6.24300,-4.54362,-23.64898
6.26500,-5.28265,-23.73580
6.27700,-5.74445,-23.70788
6.29900,-6.49582,-23.67486
6.31100,-6.81835,-23.63841
6.33300,-7.30498,-23.58295
6.35500,-7.87636,-23.50658
6.36700,-8.21533,-23.42455
6.38900,-8.79815,-23.21259
6.40100,-9.16424,-23.14010
6.42300,-9.90677,-22.90118
6.43500,-10.33156,-22.79618
6.45700,-11.17212,-22.52287
6.46900,-11.60888,-22.34432
6.49100,-12.41091,-21.82907
6.51300,-13.41969,-21.09965
6.52500,-14.00269,-20.78294
6.54700,-14.92597,-20.30239
6.55900,-15.37783,-19.97277
6.58100,-16.08017,-19.02329
6.59300,-16.38278,-18.43603
6.61500,-16.95651,-17.38640
6.63700,-17.68731,-16.50147
6.64900,-17.99066,-15.99486
6.67100,-18.45943,-15.29059
6.68300,-18.60393,-14.85238
6.70500,-18.82062,-14.14886
6.71700,-19.03814,-13.80804
6.73900,-19.60157,-13.17861
6.76100,-20.33313,-12.54016
6.77300,-20.62431,-12.13765
6.79500,-20.97327,-11.36605
6.80700,-21.13348,-10.84515
6.82900,-21.39964,-9.87450
6.84100,-21.56110,-9.31315
6.86300,-21.84459,-8.18211
6.87500,-22.01804,-7.55067
6.89700,-22.22414,-6.21669
6.91900,-22.43407,-4.86510
6.93100,-22.55796,-4.20018
6.95300,-22.73707,-3.06550
6.96500,-22.71357,-2.38882
6.98700,-22.64484,-0.99330
6.99900,-22.73567,-0.26256
7.02100,-22.80768,1.04231
7.04300,-22.87106,2.23561
7.05500,-22.88950,2.92542
7.07700,-22.88903,3.98068
7.08900,-22.96597,4.67483
7.11100,-23.04947,6.29121
7.12300,-23.14016,7.12569
7.14500,-23.35420,8.41572
7.15700,-23.55036,9.09601
7.17900,-24.02106,10.25670
7.20100,-24.60815,11.40124
7.21300,-24.91402,12.04988
7.23500,-25.42108,13.53618
7.24700,-25.67981,14.38110
7.26900,-26.12148,16.16420
7.28100,-26.36535,16.96881
7.30300,-26.80229,18.39042
7.32500,-27.20953,19.47910
7.33700,-27.15185,20.03087
7.35900,-27.03365,21.25734
7.37100,-26.82645,21.77896
7.39300,-26.24999,22.52431
7.40500,-25.81538,22.83673
7.42700,-25.06078,23.51770
7.44900,-24.12823,24.26364
7.46100,-23.60169,24.65286
7.48300,-22.52272,25.33326
7.49500,-21.87861,25.70369
7.51700,-20.71977,26.31863
7.52900,-20.12465,26.63662
7.55100,-18.98723,27.00399
7.56300,-18.36726,26.99891
7.58500,-16.91534,26.96164
7.60700,-15.33391,27.09177
7.61900,-14.42142,27.21913
7.64100,-12.83889,27.47066
7.65300,-11.96385,27.60446
7.67500,-10.21445,27.66672
7.68700,-9.28726,27.73643
7.70900,-7.55729,28.26110
7.73100,-6.06093,29.01030
7.74300,-5.10420,29.27451
7.76500,-3.37829,29.84581
7.77700,-2.50166,30.44622
7.79900,-1.07029,31.27261
7.81600,-0.04007,31.85290
7.82800,0.65769,32.09539
7.85000,2.13456,32.52857
7.87200,3.78031,33.06907
7.88400,4.66186,33.45623
7.90600,6.32281,34.33651
7.91800,7.20094,35.07733
7.94000,8.75809,36.08457
7.95200,9.70981,36.81374
7.97400,11.25620,37.41850
7.99600,12.79393,37.80305
8.00800,13.58389,38.01410
8.03000,15.05471,38.23454
8.04200,15.75835,38.23411
8.06400,17.07756,38.33081
8.07600,17.70512,38.36898
8.09800,18.66179,38.29407
8.11000,19.13094,38.24350
8.13200,19.95711,38.21561
8.15400,20.71958,38.09460
8.16600,21.12911,38.11409
8.18800,21.91263,37.89042
8.20000,22.25685,37.81019
8.22200,22.83184,37.98466
8.23400,23.11338,38.13670
8.25600,23.63135,38.22960
8.27800,24.17917,38.19739
8.29000,24.50863,38.32061
8.31200,25.21018,38.67817
8.32400,25.59897,38.83023
8.34600,26.22004,39.04269
8.35800,26.44995,39.09823
8.38000,26.73321,39.25084
8.39200,26.82527,39.42738
8.41400,26.85850,39.57724
8.43600,26.85230,39.64588
8.44800,26.91640,39.61377
8.47000,26.94298,39.57691
8.48200,26.90298,39.59388
8.50400,26.88137,39.66056
8.51600,26.86499,39.81860
8.53800,26.68748,40.13602
8.56000,26.55774,40.35281
8.57200,26.50435,40.46712
8.59400,26.29678,40.74180
8.60600,26.12848,40.89761
8.62800,25.75804,41.29684
8.64000,25.56393,41.53684
8.66200,25.12143,41.89952
8.68400,24.63843,42.29848
8.69600,24.35275,42.54841
8.71800,23.80927,42.99659
8.73000,23.48916,43.20628
8.75200,22.87871,43.63186
8.76400,22.51237,43.84486
8.78600,21.89974,44.18852
8.79800,21.52722,44.42852
8.82000,20.87891,45.02960
8.84200,20.24033,45.49866
8.85400,19.91176,45.80471
8.87600,19.33884,46.42876
8.88800,19.03830,46.74486
8.91000,18.42233,47.20776
8.92200,18.07393,47.46102
8.94400,17.41150,47.99841
8.96600,16.66398,48.49694
8.97800,16.27744,48.80968
9.00000,15.40395,49.31590
9.01200,14.90787,49.55043
9.03400,13.97179,49.88196
9.04600,13.46517,50.06319
9.06800,12.53701,50.31633
9.09000,11.60847,50.48547
9.10200,11.08067,50.63641
9.12400,10.07378,50.96534
9.13600,9.47314,51.08591
9.15800,8.49501,51.12147
9.17000,7.95311,51.20200
9.19200,6.75823,51.36206
9.20400,6.08432,51.47182
9.22600,4.81345,51.62508
9.24800,3.55506,51.57063
9.26000,2.92013,51.33033
9.28200,1.59396,50.85032
9.29400,0.69515,50.69448
9.31600,-0.98199,50.46544
9.32800,-1.89487,50.27449
9.35000,-3.45471,49.84455
9.37200,-4.72759,49.35004
9.38400,-5.38756,49.11289
9.40600,-6.77921,48.80079
9.41800,-7.54411,48.64623
9.44000,-8.94089,48.39052
9.45200,-9.66601,48.17642
9.47400,-10.90856,47.61286
9.49600,-12.17644,46.97065
9.50800,-12.83262,46.72039
9.53000,-13.98780,46.36430
9.54200,-14.58807,46.21548
9.56400,-15.47884,45.80172
9.57600,-15.80398,45.40390
9.59800,-16.23095,44.59328
9.62000,-16.57939,43.98990
9.63200,-16.81686,43.74343
9.65400,-17.32039,43.22729
9.66600,-17.54324,42.97200
9.68800,-17.77598,42.39774
9.70000,-17.86157,42.11356
9.72200,-18.00349,41.53917
9.73429,-18.09642,41.20181
9.75600,-18.30225,40.52026
9.77800,-18.52625,39.81838
9.79000,-18.60725,39.39213
9.81700,-18.82366,38.41002
9.82900,-18.89394,37.94780
9.84100,-19.02568,37.51962
9.86300,-19.26651,36.55362
9.87500,-19.24754,35.85690
9.89700,-19.11812,34.39742
9.91900,-19.02544,32.93597
9.93100,-19.05796,32.15229
9.95300,-19.00415,31.38836
9.96500,-18.87948,30.86844
9.98700,-18.40268,29.76338
9.99900,-18.13175,29.10369
10.02100,-17.65983,27.98089
10.03329,-17.31846,27.15726
10.05600,-16.57075,25.27496
10.07800,-15.84288,23.56643
10.09000,-15.43057,22.77385
10.11200,-14.57425,21.55471
10.12400,-14.12244,20.93959
10.14600,-13.13220,19.36739
10.15800,-12.53941,18.59207
10.18000,-11.44516,17.03453
10.19200,-10.89766,16.23851
10.21400,-9.99807,14.83851
10.23600,-9.14232,13.08082
10.24800,-8.75676,11.95518
10.27000,-8.11832,10.08126
10.28200,-7.76152,9.10872
10.30400,-7.20672,7.37737
10.31600,-6.86617,6.58499
10.33800,-6.21860,5.24616
10.36000,-5.52258,3.96601
10.37200,-5.12245,3.32826
10.39400,-4.33755,2.30633
10.40600,-3.88419,1.84305
10.42800,-3.04798,1.01828
10.44000,-2.62881,0.54158
10.46200,-1.82982,-0.21373
10.48400,-0.90604,-0.82030
10.49600,-0.45691,-1.27379
10.51800,0.20829,-2.64417
10.53000,0.55769,-3.40299
10.55200,1.22153,-4.75435
10.56400,1.53762,-5.35426
10.58600,2.02342,-6.52038
10.59800,2.21719,-7.21198
10.62000,2.59569,-8.65295
10.64200,2.96037,-10.26760
10.65400,3.16239,-11.14833
10.67600,3.38232,-12.70204
10.68800,3.44679,-13.46841
10.71000,3.49762,-15.11074
10.72200,3.59575,-17.16107
10.74400,3.49628,-19.16650
10.76600,3.67235,-20.96540
10.77800,3.66783,-21.74402
10.80000,3.49682,-22.62792
10.81200,3.37293,-22.83890
10.83400,3.23441,-23.51357
10.84600,3.20076,-24.00195
10.86800,3.00531,-24.96277
10.88000,2.88899,-25.35610
10.90200,2.58114,-26.20221
10.92400,2.29415,-27.10410
10.93600,2.14672,-27.65858
10.95800,1.79404,-28.56688
10.97000,1.58502,-29.06373
10.99200,1.16650,-30.53518
11.00400,0.89833,-31.23404
11.02600,0.38084,-32.35952
11.04800,-0.27361,-33.22608
11.06000,-0.59286,-33.64762
11.08200,-1.23276,-34.02235
11.09400,-1.60138,-34.18682
11.11600,-2.18555,-35.04492
11.12800,-2.52130,-35.54283
11.15000,-3.26115,-36.21508
11.17200,-4.14007,-36.77368
11.18400,-4.61031,-37.31919
11.20600,-5.44127,-38.43699
11.21800,-5.94858,-38.91216
11.24000,-6.92808,-39.48531
11.25200,-7.49213,-40.11624
11.27400,-8.52825,-41.64963
11.28600,-9.04663,-41.98512
11.30800,-9.86989,-42.50373
11.33000,-10.76063,-43.13713
11.34200,-11.30616,-43.46927
11.36400,-12.11906,-43.45392
11.37600,-12.48176,-43.22855
11.39800,-13.08013,-43.04613
11.41000,-13.49251,-43.05450
11.43200,-14.45816,-42.83243
11.45400,-15.67130,-42.87808
11.46600,-16.29700,-42.99464
11.48800,-17.68233,-42.94278
11.50000,-18.49504,-42.98014
11.52200,-19.83933,-43.31163
11.53400,-20.51579,-43.24324
11.55600,-21.46505,-42.54699
11.56828,-21.79219,-42.03171
11.59000,-22.43655,-41.08812
11.61200,-23.03289,-40.36393
11.62400,-23.29255,-39.96640
11.64600,-23.89682,-39.47777
11.65800,-24.13740,-39.32188
11.68000,-24.39419,-39.05820
11.69200,-24.54823,-38.61422
11.71400,-24.96161,-37.76878
11.73600,-25.26828,-36.93681
11.74800,-25.31847,-36.48634
11.77000,-25.32775,-35.58763
11.78200,-25.37267,-35.20142
11.80400,-25.37561,-34.30573
11.82100,-25.28137,-33.44610
11.83300,-25.12755,-32.67576
11.85500,-24.93057,-31.52004
11.87700,-24.76934,-30.41039
11.88900,-24.63569,-29.71748
11.91100,-24.53279,-28.45634
11.92300,-24.44901,-27.65016
11.94500,-24.15355,-26.22105
11.95700,-24.01642,-25.46779
11.97900,-23.86198,-24.44545
12.00100,-23.73548,-23.25888
12.01300,-23.59862,-22.34582
12.03500,-23.26498,-20.39746
12.04700,-23.13394,-19.62740
12.06900,-22.79384,-18.36831
12.08100,-22.55506,-17.64708
12.10300,-22.21220,-16.24176
12.12500,-21.64170,-14.68609
12.13700,-21.28166,-13.86367
12.15900,-20.56300,-12.62727
12.17100,-20.21704,-11.93733
12.19300,-19.61048,-10.56590
12.20500,-19.23383,-9.64118
12.22700,-18.38999,-7.52714
12.24900,-17.57716,-5.61838
12.26100,-17.22214,-4.93510
12.28300,-16.64852,-3.81046
12.29500,-16.23041,-3.14816
12.31700,-15.54920,-2.01337
12.32900,-15.16517,-1.48732
12.35100,-14.46887,-0.22015
12.36300,-14.09498,0.50456
12.38500,-13.35383,1.61663
12.40700,-12.64295,2.70011
12.41900,-12.22404,3.24834
12.44100,-11.41858,4.18873
12.45300,-10.94967,4.88742
12.47500,-10.24444,5.91378
12.48700,-9.77574,6.45732
12.50900,-8.40327,7.04693
12.53100,-7.17963,7.64733
12.54300,-6.66375,8.28726
12.56500,-5.84625,9.81993
12.57700,-5.23911,10.48776
12.59900,-4.08775,11.68522
12.61100,-3.47763,12.58974
12.63300,-2.30146,14.42290
12.64500,-1.58563,15.15269
12.66700,-0.50391,16.06363
12.68900,0.39526,17.12571
12.70100,0.94790,17.47208
12.72300,2.17921,17.71257
12.73500,2.79672,17.74961
12.75700,3.70403,18.09285
12.76900,4.13356,18.29005
12.79100,5.14685,18.47424
12.81300,6.41625,18.49605
12.82500,7.10204,18.60554
12.84700,8.21339,18.99724
12.85900,8.89377,19.29057
12.88100,10.41150,19.43129
12.89300,11.22109,19.52654
12.91500,12.95463,20.06806
12.92700,13.86403,20.44200
12.94900,15.50261,21.09913
12.97100,17.14368,21.68492
12.98300,18.05722,22.05803
13.00500,19.66595,22.61445
13.01700,20.49409,22.97557
13.03900,21.92928,23.79350
13.05100,22.73222,24.31615
13.07300,24.16233,25.31265
13.09500,25.43359,26.02115
13.10700,26.02449,26.38672
13.12900,27.06265,27.08648
13.14100,27.62974,27.40814
13.16300,28.63052,27.91147
13.17500,29.17848,28.13476
13.19700,30.14557,28.67280
13.21900,31.23448,28.88612
13.23100,31.74018,28.75326
13.25300,32.35289,28.79333
13.26500,32.58825,28.86565
13.28700,33.01545,29.17566
13.29900,33.32664,29.31564
13.32100,34.00186,29.51880
13.33300,34.41628,29.77539
13.35500,35.23668,30.25405
13.37700,35.92508,30.62192
13.38900,36.23022,30.81846
13.41100,36.96477,31.54336
13.42300,37.26102,31.87286
13.44500,37.65353,32.50476
13.45700,37.66304,32.91353
13.47900,37.61063,33.69445
13.50100,37.33153,34.46308
13.51300,37.14832,34.81510
13.53500,36.93155,35.58918
13.54700,36.79938,36.12454
13.56900,36.21056,37.26501
13.58100,35.83078,37.82154
13.60300,35.14122,38.82644
13.61500,34.75183,39.37971
13.63700,33.78972,40.50447
13.65900,32.68963,41.33447
13.67100,32.12874,41.75542
13.69300,30.99968,42.45175
13.70500,30.33513,42.71127
13.72700,29.12321,43.00809
13.73900,28.51364,43.16801
13.76100,27.39553,43.70074
13.78300,26.03636,44.30452
13.79500,25.26394,44.54789
13.82200,23.67789,44.77599
13.83400,23.02803,44.78573
13.84600,22.34877,44.87088
13.86800,21.18555,45.25628
13.88000,20.44054,45.55158
13.90200,19.02448,45.69545
13.92400,17.67150,45.89495
13.93600,17.03896,45.95874
13.95800,15.74938,46.08092
13.97000,14.99708,46.17764
13.99200,13.51021,46.41050
14.00400,12.66794,46.49257
14.02600,11.27258,46.65496
14.04800,9.91378,46.78277
14.06000,9.26380,46.77014
14.08200,7.89250,46.68003
14.09400,7.14484,46.67793
14.11600,5.80543,46.77924
14.12800,5.22872,46.80567
14.15000,4.00552,46.72791
14.16200,3.47604,46.64206
14.18400,2.33624,46.36845
14.20600,1.14884,46.11476
14.21800,0.49148,45.96412
14.24000,-0.70253,45.67462
14.25200,-1.37289,45.52496
14.27400,-2.51776,45.26940
14.28600,-3.10856,44.94918
14.30800,-4.20518,44.54201
14.33000,-5.46971,44.19978
14.34200,-6.15830,43.93496
14.36400,-7.34703,43.02379
14.37600,-7.94413,42.49731
14.39800,-8.99052,41.65189
14.41000,-9.57475,41.00899
14.43200,-10.72543,39.47967
14.45400,-11.88578,37.77131
14.46600,-12.64803,36.87147
14.48800,-13.69511,35.34482
14.50000,-14.16073,34.63512
14.52200,-14.77892,33.19859
14.53400,-15.16293,32.63058
14.55600,-15.76358,31.37715
14.57800,-16.33656,29.51932
14.59000,-16.67022,28.49102
14.61200,-17.14920,26.84725
14.62400,-17.31604,25.82316
14.64600,-17.44316,23.76589
14.65800,-17.54327,22.74191
14.68000,-17.70296,20.84526
14.70200,-17.60177,18.36655
14.71400,-17.54104,17.15394
14.73600,-17.18800,14.71322
14.74800,-16.94910,13.38217
14.77000,-16.45989,10.97652
14.78200,-16.15930,9.77159
14.80400,-15.63570,7.71012
14.81600,-15.26656,6.36993
14.83800,-14.59722,3.95693
14.86000,-13.81893,1.88267
14.87200,-13.39566,1.09980
14.89400,-12.51561,0.15617
14.90600,-11.88944,-0.48122
14.92800,-10.46791,-2.77112
14.94000,-9.83259,-4.05779
14.96200,-8.82448,-6.65897
14.97400,-8.47478,-8.06910
14.99600,-7.83172,-10.62774
15.01800,-7.15000,-13.07017
15.03000,-6.89551,-14.49528
15.05200,-6.52481,-17.10069
15.06400,-6.28959,-18.53501
15.08600,-6.01500,-21.27726
15.09800,-5.92391,-22.61827
15.12000,-5.69456,-24.47657
15.14200,-5.84135,-26.99503
15.15400,-5.97282,-28.32537
15.17600,-6.00204,-29.42738
15.18800,-5.77773,-29.77547
15.21000,-5.18383,-30.37171
15.22200,-4.83065,-30.65844
15.24400,-4.19477,-31.35609
15.25600,-3.81669,-31.84366
15.27800,-3.39094,-32.30383
15.30000,-3.00391,-32.38747
15.31200,-2.66571,-32.42807
15.33400,-2.17934,-32.68722
15.34600,-1.99539,-32.78690
15.36800,-1.77007,-33.29370
15.38000,-1.67002,-33.76351
15.40200,-1.58524,-34.75741
15.42400,-1.51173,-35.59192
15.43600,-1.51807,-35.84623
15.45800,-1.57229,-36.05773
15.47000,-1.63595,-36.13476
15.49200,-1.78128,-36.40887
15.50400,-1.87428,-36.72612
15.52600,-1.97367,-37.01523
15.54800,-2.15510,-37.03550
15.56000,-2.30623,-37.03073
15.58200,-2.44155,-37.33698
15.59400,-2.41562,-37.54241
15.61600,-2.46800,-37.76798
15.62800,-2.58930,-37.86984
15.65000,-2.95795,-37.89142
15.66200,-3.16806,-38.02057
15.68400,-3.51451,-38.43546
15.70600,-3.92714,-38.77393
15.71800,-4.28929,-38.88861
15.74000,-5.00041,-39.19702
15.75200,-5.53157,-39.27782
15.77400,-6.52618,-39.53430
15.78600,-7.05630,-39.74313
15.80800,-8.08862,-40.25235
15.82500,-8.91580,-40.52493
15.84700,-10.22168,-40.60889
15.85900,-10.99891,-40.40923
15.88100,-12.46583,-40.34007
15.89300,-13.23159,-40.53794
15.91500,-14.46029,-40.83966
15.92700,-15.14436,-40.85831
15.94900,-16.23422,-40.67340
15.97100,-17.43914,-40.38842
15.98300,-18.12159,-40.20656
16.00500,-19.36153,-40.29186
16.01700,-20.03839,-40.41600
16.03900,-21.33654,-40.41874
16.05100,-22.01847,-40.32310
16.07300,-23.42159,-40.06763
16.09500,-24.84619,-39.94847
16.10700,-25.61833,-39.78244
16.12900,-26.82060,-39.48349
16.14100,-27.46235,-39.29367
16.16300,-28.51424,-38.85701
16.17500,-29.10100,-38.63900
16.19700,-30.17661,-38.36062
16.21900,-31.24891,-37.80718
16.23100,-31.70881,-37.49107
16.25300,-32.93299,-36.84169
16.26500,-33.49754,-36.51794
16.28700,-34.16066,-35.69082
16.29900,-34.37136,-35.14849
16.32100,-34.69709,-34.08484
16.33300,-34.82889,-33.50234
16.35500,-35.27803,-32.41956
16.37700,-35.65292,-31.53195
16.38900,-35.80936,-31.01805
16.41100,-35.91788,-29.95814
16.42300,-35.88145,-29.34947
16.44500,-35.93931,-28.16768
16.45700,-35.96901,-27.61112
16.47900,-36.04497,-26.44951
16.50100,-36.06549,-25.25735
16.51300,-36.04112,-24.53225
16.53500,-35.91600,-23.30450
16.54700,-35.82731,-22.66635
16.56900,-35.60449,-21.77751
16.58100,-35.43140,-21.29377
16.60300,-35.09845,-20.37783
16.61500,-34.85458,-19.75816
16.63700,-34.17481,-18.63053
16.65900,-33.44651,-17.58883
16.67100,-32.96838,-17.11078
16.69300,-32.11606,-16.24226
16.70500,-31.58811,-15.77488
16.72700,-30.41911,-14.24940
16.74900,-29.21391,-12.81591
16.76100,-28.55061,-12.06867
16.78300,-27.37834,-11.09665
16.79500,-26.78110,-10.37407
16.81700,-25.65042,-8.87998
16.82900,-25.18019,-8.01749
16.85100,-23.84820,-6.56124
16.86300,-23.25789,-5.48197
16.88500,-22.21580,-3.23473
16.89729,-21.61101,-2.08963
16.91900,-20.42321,-0.65870
16.94100,-19.49607,0.46138
16.95300,-18.92709,1.20175
16.97500,-17.94229,2.98556
16.98700,-17.26568,3.85944
17.00900,-16.00636,5.42124
17.03100,-14.78223,6.61166
17.04300,-14.07321,7.30976
17.06500,-12.85869,8.76138
17.07700,-12.02052,9.75159
17.09900,-10.44836,11.50763
17.11100,-9.60865,12.32518
17.13300,-8.38974,13.57663
17.14500,-7.81442,14.21174
17.16700,-6.60578,15.21802
17.18900,-5.21396,15.74528
17.20100,-4.54090,15.78615
17.22300,-3.22875,15.68863
17.23500,-2.44867,15.89476
17.25700,-0.98654,16.56956
17.26900,-0.27428,16.92491
17.29100,1.07472,17.30381
17.30300,1.82192,17.51780
17.32500,3.16716,18.21641
17.34700,4.53287,18.84017
17.35900,5.28111,19.17773
17.38100,6.72967,19.72755
17.39300,7.50766,20.14480
17.41500,8.71132,21.43837
17.42700,9.15936,22.05459
17.44900,9.83764,22.65266
17.47100,10.82461,23.00470
17.48300,11.45465,23.23996
17.50500,12.55630,23.83664
17.51700,13.13207,24.14679
17.53900,14.04846,24.67855
17.55100,14.50941,24.96722
17.57300,15.51363,25.60688
17.59500,16.77701,26.16706
17.60700,17.42099,26.46784
17.62900,18.54712,26.87016
17.64100,18.98151,27.15598
17.66300,19.74417,27.24157
17.67500,20.05680,27.16116
17.69700,20.43551,27.01181
17.70900,20.67604,26.89742
17.73100,21.12231,26.92908
17.75300,21.42317,27.12098
17.76500,21.51124,27.32528
17.78700,21.71935,27.63703
17.79900,21.83285,28.01391
17.82600,22.07226,28.91734
17.83800,22.21991,29.26810
17.85000,22.49004,29.63379
17.87200,22.91592,30.13645
17.89400,23.03991,30.87271
17.90600,23.05477,31.16407
17.92800,23.05989,31.43062
17.94000,22.94661,31.67768
17.96200,22.57633,32.22449
17.97400,22.26710,32.61987
17.99600,21.64780,33.09029
18.01800,21.10964,33.29645
18.03000,20.92766,33.43362
18.05200,20.50021,33.84898
18.06400,20.13135,34.18255
18.08600,19.51670,35.08627
18.09800,19.34730,35.36729
18.12000,18.92087,35.78459
18.14200,18.48986,36.26556
18.15400,18.16913,36.41716
18.17600,17.61416,36.83532
18.18800,17.31688,37.12513
18.21000,16.65324,37.55268
18.22200,16.23357,37.84639
18.24400,15.26538,38.40545
18.25600,14.65193,38.76762
18.27800,13.54620,39.32273
18.30000,12.46042,39.67365
18.31200,11.87742,39.79240
18.33400,10.91234,40.40318
18.34600,10.33054,40.69234
18.36800,9.57614,41.39296
18.38000,9.07126,41.81461
18.40200,7.97116,42.34313
18.42400,6.81536,42.89401
18.43600,6.25144,43.21192
18.45800,5.29654,43.45130
18.47000,4.77798,43.53101
18.49200,3.72042,43.85199
18.50400,3.11916,44.09331
18.52600,1.88487,44.36798
18.53828,1.25828,44.42732
18.56000,0.26284,44.04352
18.58200,-0.70434,43.49280
18.59400,-1.25952,43.36871
18.61600,-2.54257,43.37396
18.62800,-3.31667,43.34650
18.65000,-4.74398,43.17525
18.66200,-5.39155,43.08834
18.68400,-6.44531,42.91518
18.70600,-7.54885,43.09410
18.71800,-8.24411,43.16239
18.74000,-9.63200,43.19543
18.75200,-10.49401,43.25220
18.77400,-11.96063,43.38070
18.78600,-12.65633,43.40198
18.80800,-13.78148,43.32039
18.83000,-14.92928,43.29452
18.84200,-15.66451,43.42494
18.86400,-17.03803,43.56359
18.87600,-17.74117,43.50971
18.89800,-18.83356,43.05492
18.91000,-19.39791,42.81015
18.93200,-20.57620,42.59222
18.95400,-21.65888,42.33441
18.96600,-22.26586,42.16816
18.98800,-23.29055,41.94481
19.00000,-23.83696,41.72146
19.02200,-24.70481,41.25458
19.03400,-25.13172,40.98948
19.05600,-25.82100,40.33828
19.06800,-26.23953,40.00322
19.09000,-26.82907,39.46654
19.11200,-27.39083,38.85516
19.12400,-27.59124,38.52658
19.14600,-27.97116,37.85619
19.15800,-28.18365,37.59750
19.18000,-28.42140,37.11810
19.19200,-28.50888,36.75175
19.21400,-28.62512,36.03491
19.22600,-28.61498,35.73458
19.24800,-28.65668,35.12233
19.27000,-28.69006,34.38513
19.28200,-28.75091,34.05215
19.30400,-28.71678,33.34029
19.31600,-28.64087,32.94035
19.33800,-28.46767,32.11041
19.35000,-28.45553,31.77290
19.37200,-28.50184,31.17252
19.39400,-28.47158,30.51560
19.40600,-28.28072,29.97824
19.42800,-27.89186,29.01354
19.44000,-27.66927,28.44810
19.46200,-27.35679,27.48795
19.47400,-27.22416,26.89583
19.49600,-26.85875,25.65838
19.51800,-26.38634,24.31190
19.53000,-26.08005,23.59415
19.55200,-25.53618,22.35666
19.56400,-25.17775,21.61614
19.58600,-24.40729,19.82927
19.59800,-23.96040,18.76613
19.62000,-23.21052,17.10436
19.63200,-22.68932,16.06747
19.65400,-21.81647,14.10389
19.67600,-20.88037,12.04015
19.68800,-20.40306,10.87271
19.71000,-19.61556,9.10223
19.72200,-19.10036,8.29624
19.74400,-18.00812,6.64470
19.75600,-17.34188,5.90591
19.77800,-16.16257,4.49905
19.80000,-14.95136,3.08894
19.81200,-14.48573,2.51541
19.82900,-14.06085,1.62861
19.85100,-13.90476,0.21776
19.86300,-13.63328,-0.84456
19.88500,-12.47180,-2.77853
19.89700,-11.83147,-3.57994
19.91900,-10.68225,-4.55050
19.94100,-9.50304,-5.48522
19.95300,-8.79932,-5.86772
19.97500,-7.53347,-6.45292
19.98700,-7.00506,-6.67801
20.00900,-6.13252,-7.60789
20.02100,-5.62567,-8.25985
20.04300,-4.72572,-9.97262
20.06500,-3.65443,-11.67359
20.07700,-3.20084,-12.63079
20.09900,-2.41505,-14.31444
20.11100,-2.13135,-15.05691
20.13300,-1.70375,-15.91337
20.14500,-1.44445,-16.48664
20.16700,-0.76450,-17.43484
20.17900,-0.32518,-17.84569
20.20100,0.46340,-18.43537
20.22300,1.37735,-19.08965
20.23500,1.80101,-19.32934
20.25700,2.33963,-20.02198
20.26900,2.58711,-20.46910
20.29100,3.10868,-21.11751
20.30300,3.48805,-21.50572
20.32500,4.15742,-22.35518
20.34700,4.61440,-23.57337
20.35900,4.77650,-24.25699
20.38100,4.91891,-25.52503
20.39300,4.95806,-26.29775
20.41500,5.09745,-27.47166
20.42700,5.05521,-28.12108
20.44900,4.83693,-29.03537
20.47100,4.63376,-29.66575
20.48300,4.58838,-29.88396
20.50500,4.47604,-30.18334
20.51700,4.33821,-30.40462
20.53900,4.07645,-30.85388
20.55100,3.89960,-31.19035
20.57300,3.47113,-31.74590
20.59500,3.29618,-32.36827
20.60700,3.12771,-32.65285
20.62900,2.67123,-33.17414
20.64100,2.38966,-33.51380
20.66300,1.85703,-34.10753
20.67500,1.68448,-34.39384
20.69700,1.49998,-34.78470
20.70900,1.26121,-35.04657
20.73100,0.73764,-35.49373
20.75300,0.18836,-35.96220
20.76500,-0.13522,-36.12995
20.78700,-0.90744,-36.17574
20.79900,-1.22852,-36.53636
20.82100,-1.86293,-36.96663
20.83300,-2.29744,-37.04738
20.85500,-3.09091,-37.16602
20.87700,-3.81796,-37.21999
20.88900,-4.28588,-37.17075
20.91100,-5.17782,-37.26974
20.92300,-5.72468,-37.30957
20.94500,-6.85786,-37.41838
20.95700,-7.51250,-37.43329
20.97900,-8.68594,-37.55974
20.99100,-9.37245,-37.44084
21.01300,-10.26070,-36.95643
21.03500,-11.27963,-35.87331
21.04700,-12.07237,-35.08226
21.06900,-13.39509,-33.67372
21.08100,-13.99073,-32.90683
21.10300,-14.58811,-31.95547
21.11500,-14.86822,-31.41835
21.13700,-15.38412,-30.27802
21.15900,-15.95495,-29.33131
21.17100,-16.31919,-28.89124
21.19300,-16.94571,-28.21633
21.20500,-17.20602,-27.94621
21.22700,-17.80594,-27.48344
21.23900,-18.05739,-27.13918
21.26100,-18.52319,-26.43312
21.27328,-18.76405,-25.90972
21.29500,-19.12362,-24.85224
21.31700,-19.52810,-24.17070
21.32900,-19.72679,-23.55023
21.35100,-19.92405,-21.96293
21.36300,-20.06915,-21.16265
21.38500,-19.81821,-19.61226
21.39700,-19.78402,-18.94657
21.41900,-19.96262,-17.79119
21.44100,-20.00087,-16.67408
21.45300,-20.01478,-16.02081
21.47500,-19.74675,-14.46952
21.48700,-19.44159,-13.64950
21.50900,-19.13069,-12.37042
21.52100,-18.92505,-11.73222
21.54300,-18.62211,-10.38768
21.56500,-18.42510,-9.00393
21.57700,-18.34437,-8.46258
21.59900,-18.21337,-7.52767
21.61100,-18.16166,-7.07127
21.63300,-18.16454,-6.00806
21.64500,-18.17220,-5.39854
21.66700,-18.14866,-4.40580
21.67900,-18.05945,-3.88546
21.70100,-18.00799,-2.63403
21.72300,-17.80632,-1.54425
21.73500,-17.76209,-1.10214
21.75700,-17.76188,-0.38098
21.76900,-17.79379,0.25528
21.79100,-17.72498,1.44081
21.81300,-17.54563,2.59662
21.83000,-17.40045,3.65348
21.84200,-17.20653,4.40400
21.86400,-16.91249,5.58781
21.87600,-16.79029,6.07195
21.89800,-16.60290,6.78940
21.91000,-16.47219,7.24756
21.93200,-16.06131,7.93954
21.94400,-15.81234,8.27446
21.96600,-15.37351,8.76785
21.98800,-14.87547,9.21714
22.00000,-14.57527,9.49913
22.02200,-13.94985,9.98145
22.03400,-13.57617,10.36745
22.05600,-12.81995,11.05866
22.06800,-12.40237,11.39120
22.09000,-11.48734,12.02118
22.11200,-10.51246,12.78115
22.12400,-9.93028,13.48962
22.14600,-8.87646,15.08706
22.15800,-8.31357,15.79394
22.18000,-7.33811,16.73903
22.19200,-6.76837,17.28376
22.21400,-5.67784,18.38366
22.22600,-5.11411,19.31052
22.24800,-4.10941,20.60047
22.27000,-3.13896,21.31964
22.28200,-2.64888,21.85334
22.30400,-1.72363,22.96758
22.31600,-1.24193,23.78451
22.33800,-0.39397,25.36325
22.35000,0.10036,26.28537
22.37200,1.23217,27.01030
22.39400,2.20330,27.46892
22.40600,2.77886,27.86023
22.42800,3.84575,28.71505
22.44000,4.43873,29.17717
22.46200,5.63365,29.72530
22.47400,6.22862,29.94834
22.49600,7.29438,30.56038
22.51800,8.33524,31.32775
22.53000,8.85992,31.78654
22.55200,9.86408,32.62500
22.56400,10.42063,33.06920
22.58600,11.36321,33.60275
22.59800,11.86160,33.98789
22.62000,12.71850,34.74518
22.63200,13.07206,35.02816
22.65400,13.53189,35.47888
22.67600,13.99389,35.92774
22.68800,14.26198,36.13798
22.71000,14.66005,36.50808
22.72200,14.97064,36.65458
22.74400,15.67484,36.93825
22.75600,15.96555,37.13496
22.77800,16.47355,37.50780
22.80000,16.97440,37.82902
22.81200,17.28407,37.95911
22.83400,17.87148,38.29581
22.84600,18.17799,38.48984
22.86800,18.73607,38.76551
22.88000,18.97418,38.87655
22.90200,19.37751,39.20899
22.91428,19.58878,39.47013
22.93600,19.93309,39.99545
22.95800,20.24331,40.42018
22.97000,20.37943,40.62866
22.99200,20.65023,40.80313
23.00400,20.78923,40.91343
23.02600,20.96565,41.11598
23.03800,21.03505,41.24426
23.06000,21.01977,41.59636
23.08200,20.85734,42.05808
23.09400,20.75038,42.31465
23.11600,20.39395,42.58160
23.12800,20.23215,42.84114
23.15000,19.79488,43.66946
23.16200,19.53113,44.08152
23.18400,18.87391,44.65805
23.20600,18.28893,45.07397
23.21800,17.88856,45.19477
23.24000,17.09148,45.41995
23.25200,16.60992,45.52058
23.27400,15.83564,45.83417
23.28600,15.40292,46.01188
23.30800,14.59602,46.21555
23.32000,14.10951,46.36101
23.34200,13.18432,46.62087
23.36400,12.12130,47.09553
23.37600,11.75703,47.31235
23.39800,10.92888,47.59165
23.41000,10.39778,47.74141
23.43200,9.34516,48.09549
23.44400,8.79445,48.35722
23.46600,7.82229,48.64288
23.48800,6.77771,49.02090
23.50000,6.19725,49.16179
23.52200,5.03975,49.38958
23.53400,4.37313,49.57379
23.55600,3.01947,49.85063
23.56800,2.34934,49.93129
23.59000,1.30609,49.64339
23.60228,0.83366,49.59227
23.62400,-0.22439,49.76151
23.64600,-1.63884,50.00514
23.65800,-2.47861,50.06986
23.68000,-3.88190,49.73252
23.69200,-4.63536,49.61833
23.71400,-6.00802,49.52707
23.72600,-6.77407,49.42078
23.74800,-8.06583,49.29317
23.77000,-9.29637,49.05358
23.78200,-10.01604,48.97215
23.80400,-11.45903,48.88322
23.81600,-12.31431,48.93908
23.83300,-13.49943,48.96682
23.85500,-14.86070,48.83273
23.86700,-15.55902,48.77926
23.88900,-16.82960,48.65635
23.91100,-18.05255,48.52860
23.92300,-18.78200,48.54207
23.94500,-19.95091,48.44032
23.95700,-20.49444,48.34935
23.97900,-21.46729,48.27001
23.99100,-21.93304,48.13071
24.01300,-22.86053,47.91802
24.03500,-23.78132,47.74980
24.04700,-24.22749,47.59175
24.06900,-24.94576,47.17269
24.08100,-25.24466,46.94589
24.10300,-25.92052,46.54981
24.11500,-26.33679,46.32706
24.13700,-27.01540,45.80420
24.14928,-27.24844,45.42161
24.17100,-27.73600,44.86341
24.19300,-28.33164,44.26919
24.20500,-28.63851,43.88290
24.22700,-29.17626,43.23201
24.23900,-29.48670,42.95617
24.26100,-29.79990,42.26757
24.27300,-30.02952,41.92835
24.29500,-30.49452,41.40913
24.31700,-30.78083,40.61784
24.32900,-30.86299,40.12734
24.35100,-30.90651,39.23549
24.36300,-30.86059,38.65937
24.38500,-30.93659,37.57916
24.39700,-30.95774,37.13957
24.41900,-30.90243,36.35949
24.44100,-30.66016,35.33010
24.45300,-30.58691,34.78967
24.47500,-30.41166,33.72234
24.48700,-30.33825,33.21476
24.50900,-30.01356,32.13463
24.52100,-29.87624,31.56143
24.54300,-29.75748,30.86362
24.55500,-29.67915,30.44542
24.57700,-29.38936,29.54090
24.59900,-28.73645,28.20944
24.61100,-28.27078,27.36944
24.63300,-27.47577,26.22643
24.64500,-27.11583,25.69687
24.66700,-26.31244,24.64805
24.68900,-25.30066,23.48600
24.70100,-24.71396,22.87571
24.72300,-23.60932,21.62025
24.73500,-22.98160,20.88148
24.75700,-21.87057,19.72833
24.76900,-21.24980,19.13933
24.79100,-20.03054,17.97796
24.80300,-19.36216,17.35800
24.82500,-17.88411,15.75661
24.84700,-16.63783,14.40373
24.85900,-16.01023,13.88047
24.88100,-14.96359,12.77222
24.89300,-14.39844,12.05402
24.91500,-13.43660,10.45055
24.92700,-12.93593,9.42047
24.94900,-12.10741,7.68102
24.96100,-11.50434,6.83182
24.98300,-10.49226,5.44943
25.00500,-9.51673,4.03335
25.01700,-8.98276,3.40315
25.03900,-8.01563,2.67016
25.05100,-7.37672,2.04904
25.07300,-6.02472,0.53825
25.08500,-5.39329,0.06246
25.10700,-4.40777,-0.22782
25.12900,-3.40026,-0.90817
25.14100,-2.79868,-1.47919
25.16300,-1.81509,-2.36071
25.17500,-1.38997,-2.82660
25.19700,-0.73530,-3.97738
25.20900,-0.41554,-4.79914
25.23100,0.17415,-6.24031
25.24300,0.52357,-6.59077
25.26500,1.21119,-7.30730
25.28700,1.89159,-8.22405
25.29900,2.25954,-8.57969
25.32100,2.83960,-9.17498
25.33300,3.08844,-9.60857
25.35500,3.39902,-10.37008
25.36700,3.62898,-10.80184
25.38900,4.07114,-11.40952
25.41100,4.57322,-12.00838
25.42300,4.77995,-12.51330
25.44500,5.08717,-13.23642
25.45700,5.22610,-13.56760
25.47900,5.42563,-14.06969
25.49100,5.57317,-14.58268
25.51300,5.72310,-15.29853
25.53500,5.80190,-15.79751
25.54700,5.79662,-15.89072
25.56900,5.79564,-16.32517
25.58100,5.79585,-16.76793
25.60300,5.78348,-17.72507
25.61500,5.76845,-18.26509
25.63700,5.58959,-19.19261
25.64900,5.53039,-19.64082
25.67100,5.40259,-20.72976
25.69300,5.21632,-21.74384
25.70500,5.02754,-22.24699
25.72700,4.51762,-23.04574
25.73900,4.23873,-23.65475
25.76100,3.73922,-25.05782
25.77300,3.40125,-25.69007
25.79500,2.64989,-26.56697
25.81700,1.80562,-27.27793
25.83400,1.05184,-27.95530
25.84600,0.34941,-28.47199
25.86800,-1.03095,-29.42237
25.88000,-1.88995,-29.91251
25.90200,-3.44033,-31.04659
25.92400,-4.87326,-32.43686
25.93600,-5.69818,-32.95667
25.95800,-7.49943,-33.51939
25.97000,-8.60475,-34.14660
25.99200,-10.36731,-34.90319
26.00400,-11.06645,-35.15475
26.02600,-12.31752,-35.08052
26.03800,-12.88224,-34.89421
26.06000,-13.87264,-34.62267
26.08200,-14.54925,-34.26490
26.09400,-14.82986,-33.99109
26.11600,-15.48499,-33.44620
26.12800,-15.85468,-33.18946
26.15000,-16.59031,-32.70556
26.16200,-16.93722,-32.33018
26.18400,-17.71315,-31.41957
26.19628,-18.10316,-31.06388
26.21800,-18.75354,-30.67116
26.24000,-19.41880,-30.02866
26.25200,-19.80046,-29.73827
26.27400,-20.41573,-29.19315
26.28600,-20.80145,-28.84483
26.30800,-21.42596,-28.15668
26.32000,-21.80762,-27.83015
26.34200,-22.34881,-26.90345
26.36400,-22.69253,-26.09286
26.37600,-22.90904,-25.51580
26.39800,-23.21007,-24.59458
26.41000,-23.46724,-24.32525
26.43200,-23.80654,-23.81912
26.44400,-24.06671,-23.49603
26.46600,-24.58671,-22.80260
26.48800,-24.82282,-21.86620
26.50000,-25.07050,-21.37298
26.52200,-25.45702,-20.73720
26.53400,-25.61886,-20.47397
26.55600,-25.81856,-19.76934
26.56800,-25.93657,-19.29991
26.59000,-26.13374,-18.26829
26.61200,-26.24028,-17.31750
26.62400,-26.23043,-16.85966
26.64600,-26.23178,-15.98240
26.65800,-26.27187,-15.51961
26.68000,-26.28382,-14.77133
26.69200,-26.26025,-14.29413
26.71400,-26.15501,-13.41157
26.72600,-26.09169,-13.11372
26.74800,-25.92542,-12.68152
26.77000,-25.74573,-12.41625
26.78200,-25.59116,-12.29074
26.80400,-25.35426,-12.05311
26.81600,-25.28625,-11.78049
26.83800,-25.20675,-11.30881
26.85000,-25.10571,-11.05344
26.87200,-24.86941,-10.45550
26.89400,-24.49761,-9.89717
26.90600,-24.18210,-9.43778
26.92800,-23.67497,-8.12915
26.94000,-23.27397,-7.34403
26.96200,-22.79719,-5.51920
26.97400,-22.33709,-4.52063
26.99600,-21.38433,-2.84882
27.00800,-20.80863,-1.93894
27.03000,-19.77067,-0.44137
27.05200,-18.84341,0.82857
27.06400,-18.38482,1.58862
27.08600,-17.50750,2.64300
27.09800,-16.98368,3.10520
27.12000,-15.94153,3.53595
27.13200,-15.39711,3.88850
27.15400,-14.47132,4.84220
27.17600,-13.52350,5.72987
27.18800,-12.94220,6.07153
27.21000,-11.75641,6.80972
27.22200,-11.19773,7.43267
27.24400,-10.02830,8.40906
27.25600,-9.44581,9.12667
27.27800,-8.26799,10.36432
27.30000,-7.04082,11.42577
27.31200,-6.32988,15.40836
27.33400,-4.76451,17.44432
27.34600,-3.96395,19.11712
27.36800,-2.56261,21.69128
27.38000,-1.89204,22.42253
27.40200,-0.83272,23.65471
27.41400,-0.15919,24.17243
27.43600,1.11040,25.07778
27.45800,2.42939,26.40773
27.47000,3.08852,26.84226
27.49200,4.18581,27.73260
27.50400,4.79329,28.15196
27.52600,5.88807,28.79483
27.53800,6.46285,29.06226
27.56000,7.45953,29.79373
27.58200,8.47987,30.48450
27.59400,9.03295,30.79156
27.61600,10.00831,31.14977
27.62800,10.48324,31.23296
27.65000,11.37943,31.53589
27.66200,11.81183,31.87506
27.68400,12.60596,32.48457
27.69600,13.06286,32.96407
27.71800,13.97563,33.78690
27.74000,14.79937,34.37023
27.75200,15.31443,34.74268
27.77400,15.83137,34.99428
27.78600,16.10781,35.11951
27.80800,16.58503,35.47850
27.82000,16.94773,35.78047
27.83700,17.39998,36.09777
27.85900,18.04191,36.48371
27.88100,18.59966,36.82321
27.89300,18.87722,36.95818
27.91500,19.33315,37.27458
27.92700,19.58128,37.42847
27.94900,19.98171,37.50222
27.96100,20.18958,37.58383
27.98300,20.53527,37.87201
28.00500,20.86257,38.26228
28.01700,21.01475,38.50311
28.03900,21.14177,38.89820
28.05100,21.13774,39.01992
28.07300,21.11707,39.24820
28.08500,21.06839,39.34247
28.10700,20.93574,39.31446
28.12900,20.71225,39.56982
28.14100,20.56083,39.80835
28.16300,20.27394,40.15571
28.17500,20.12337,40.27002
28.19700,19.80062,40.39227
28.20900,19.53742,40.44335
28.23100,18.91028,40.42741
28.24300,18.54703,40.38474
28.26500,17.94782,40.41544
28.28700,17.33234,40.57758
28.29900,16.96795,40.68089
28.32100,16.53806,40.85322
28.33300,16.27431,41.05229
28.35500,15.72542,41.45657
28.36700,15.44970,41.63997
28.38900,15.09986,41.88079
28.41100,14.66305,42.43314
28.42300,14.33476,42.76926
28.44500,13.66745,43.56978
28.45700,13.52186,43.83853
28.47900,12.99997,44.37877
28.49100,12.69437,44.68690
28.51300,11.96186,45.29198
28.52500,11.52489,45.52119
28.54700,10.65298,45.79289
28.56900,9.60431,46.23223
28.58100,8.95046,46.45205
28.60300,7.75925,46.88011
28.61500,7.16185,47.01981
28.63700,6.05826,47.31898
28.64900,5.44118,47.44903
28.67100,4.27366,47.63507
28.69300,3.00885,47.90518
28.70500,2.25592,48.04438
28.72700,0.75512,48.36705
28.73900,-0.03975,48.53553
28.76100,-1.14663,48.65096
28.77300,-1.72824,48.74932
28.79500,-2.81679,49.01223
28.81700,-4.01249,49.22747
28.82900,-4.69189,49.37023
28.85100,-6.08990,49.61200
28.86300,-6.80339,49.70062
28.88500,-8.10660,49.95494
28.89700,-8.94539,50.09274
28.91900,-10.63973,50.06406
28.93128,-11.53248,50.08714
28.95300,-13.16656,50.10866
28.97500,-14.79000,50.09363
28.98700,-15.53524,50.03349
29.00900,-16.92160,49.79090
29.02100,-17.72751,49.74375
29.04300,-19.21672,49.79155
29.05500,-19.76494,49.73089
29.07700,-20.59926,49.50042
29.09900,-21.60379,49.35004
29.11100,-22.19188,49.23101
29.13300,-23.16882,48.90623
29.14500,-23.59175,48.72854
29.16700,-24.15793,48.19642
29.17900,-24.55279,47.96893
29.20100,-25.18375,47.38032
29.22300,-26.11020,46.92725
29.23500,-26.57887,46.69397
29.25700,-27.22330,46.09932
29.26900,-27.47687,45.73229
29.29100,-27.88812,44.88368
29.30300,-28.13984,44.44988
29.32500,-28.53100,43.66317
29.33700,-28.62486,43.06907
29.35900,-28.67498,42.08894
29.38100,-28.72662,41.11199
29.39300,-28.63186,40.61988
29.41500,-28.27335,39.44849
29.42700,-28.11955,38.89774
29.44900,-27.85057,37.76837
29.47100,-27.75096,36.85573
29.48300,-27.65534,36.44433
29.50500,-27.35038,35.71788
29.51700,-27.17357,35.25025
29.53900,-26.57301,33.95555
29.55100,-26.31294,33.21176
29.57300,-25.90443,31.91375
29.58500,-25.64570,31.20113
29.60700,-25.14667,30.23806
29.61900,-24.74468,29.55445
29.64100,-23.86965,28.17035
29.66300,-23.05733,26.68652
29.67500,-22.62327,25.70137
29.69700,-21.88706,23.73733
29.70900,-21.40572,22.51856
29.73100,-20.55000,20.50859
29.74300,-20.06222,19.70960
29.76500,-19.12784,18.39428
29.78700,-18.27631,17.21997
29.79900,-17.75788,16.35973
29.82100,-17.02406,14.63760
29.83800,-16.38593,13.32400
29.85000,-15.95200,12.51632
29.87200,-15.13085,11.04146
29.88400,-14.65941,10.32400
29.90600,-13.80424,8.98454
29.92800,-12.92079,7.47543
29.94000,-12.46688,6.64863
29.96200,-11.63299,5.27905
29.97400,-11.18484,4.43695
29.99600,-10.38358,3.10769
30.00800,-9.92451,2.50820
30.03000,-9.02098,1.30101
30.05200,-8.18727,-0.50945
30.06400,-7.70786,-2.60041
30.08600,-6.95202,-4.60792
30.09800,-6.59141,-5.51952
30.12000,-5.80546,-6.95957
30.13200,-5.25985,-7.26948
30.15400,-4.06417,-7.14004
30.16600,-3.46210,-7.16497
30.18800,-2.44635,-8.17392
30.21000,-1.48649,-9.23153
30.22200,-1.03166,-9.82461
30.24400,-0.30194,-11.58894
30.25600,0.17203,-12.32722
30.27800,0.99151,-13.48447
30.29000,1.40514,-14.08182
30.31200,2.12289,-15.36936
30.33400,2.83902,-16.82795
30.34600,3.27549,-17.68680
30.36800,4.03554,-19.90381
30.38000,4.37598,-21.13419
30.40200,4.95267,-25.17963
30.41400,5.21638,-26.05153
30.43600,5.96255,-28.50542
30.45800,6.63393,-30.84634
30.47000,7.01445,-31.86226
30.49200,7.67893,-33.14498
30.50400,8.04255,-34.05338
30.52600,8.48958,-36.32513
30.53800,8.78972,-37.43351
30.56000,9.31948,-39.59170
30.57200,9.61909,-40.71262
30.59400,10.21238,-42.52412
30.61600,10.73486,-43.68714
30.62800,10.81816,-44.46984
30.65000,11.11938,-46.23751
30.66200,11.26707,-47.11060
30.68400,11.53443,-48.17608
30.69600,11.75195,-49.15226
30.71800,12.06868,-50.64835
30.74000,12.08564,-52.17146
30.75200,12.17608,-53.21612
30.77400,12.45407,-55.31605
30.78600,12.57360,-56.60146
30.80800,12.83032,-58.14071
30.82000,12.91150,-58.92253
30.84200,12.84843,-59.83627
30.86400,12.40610,-60.03708
30.87600,12.27751,-60.07955
30.89800,11.76199,-60.20907
30.91000,11.40712,-60.33883
30.93200,10.56302,-60.28378
30.94400,10.24397,-60.34681
30.96600,9.79190,-60.50733
30.97800,9.51803,-60.64495
31.00000,8.76948,-60.59720
31.02200,7.68626,-60.47964
31.03400,7.18994,-60.38438
31.05600,6.24950,-60.35035
31.06800,5.93170,-60.35927
31.09000,5.26545,-60.26173
31.10200,4.98765,-60.37816
31.12400,4.31125,-60.41945
31.14600,3.24865,-60.34653
31.15800,2.42620,-60.28684
31.18000,1.03481,-60.24074
31.19200,0.32940,-60.18103
31.21400,-0.96208,-60.02914
31.22600,-1.58412,-59.81880
31.24800,-2.96842,-59.37878
31.27000,-4.33301,-58.96837
31.28200,-5.03824,-58.74955
31.30400,-6.81959,-58.43216
31.31600,-7.97835,-58.12695
31.33800,-9.55467,-57.26786
31.35000,-10.38605,-56.76871
31.37200,-11.76204,-55.74794
31.38400,-12.43389,-55.21875
31.40600,-13.34157,-54.30685
31.42800,-14.20507,-53.40076
31.44000,-14.68821,-52.99024
31.46200,-15.33216,-51.99782
31.47400,-15.69317,-51.34469
31.49600,-16.08030,-50.03282
31.50800,-16.28913,-49.20012
31.53000,-16.77527,-48.05455
31.55200,-17.14532,-47.12397
31.56400,-17.31093,-46.48279
31.58600,-17.67848,-45.22719
31.59800,-17.82809,-44.65646
31.62000,-18.12560,-43.49397
31.63200,-18.26229,-42.68946
31.65400,-18.61658,-41.07310
31.66600,-18.81083,-40.28810
31.68800,-18.94731,-39.05785
31.71000,-19.03386,-37.88533
31.72200,-18.98241,-37.15043
31.74400,-19.06037,-35.91070
31.75600,-19.14043,-35.36211
31.77800,-19.39389,-34.47719
31.79000,-19.59499,-33.96618
31.81200,-19.98539,-32.84423
31.83900,-20.55347,-31.52059
31.85100,-20.87107,-30.98004
31.86300,-21.16945,-30.48545
31.88500,-21.66175,-29.43225
31.89700,-21.97467,-28.83477
31.91900,-22.45867,-27.59190
31.93100,-22.75312,-26.94284
31.95300,-23.03458,-25.52395
31.97500,-23.25394,-24.03055
31.98700,-23.32305,-23.39971
32.00900,-23.24949,-21.80861
32.02100,-23.28623,-21.16722
32.04300,-23.07686,-19.08946
32.06500,-22.89277,-17.66242
32.07700,-22.87925,-16.96742
32.09900,-22.53801,-15.48879
32.11100,-22.48871,-15.01496
32.13300,-22.32296,-13.81616
32.14500,-22.12276,-12.90966
32.16700,-21.57230,-10.01157
32.17900,-21.32095,-8.96408
32.20100,-20.64010,-6.19286
32.21300,-20.26631,-5.14204
32.23500,-19.52902,-2.52859
32.25700,-18.74247,-0.26098
32.26900,-18.28805,0.74626
32.29100,-17.44954,2.75219
32.30300,-16.87317,3.79566
32.32500,-15.70325,5.93214
32.33700,-15.05851,7.47680
32.35900,-13.94598,9.67089
32.38100,-12.97399,10.96349
32.39300,-12.46463,11.34466
32.41500,-11.43797,12.52837
32.42700,-10.81007,13.48077
32.44900,-9.53904,15.50429
32.46100,-8.68267,16.83743
32.48300,-7.53123,19.51562
32.50500,-6.32344,21.54269
32.51700,-5.48090,22.36453
32.53900,-3.48950,26.59319
32.55100,-2.57819,27.56728
32.57300,-1.02418,29.20121
32.58500,-0.11748,30.20650
32.60700,1.29225,31.32876
32.61900,2.15041,32.42510
32.64100,3.76461,34.74121
32.66300,5.14265,37.17980
32.67500,5.98530,38.23905
32.69700,7.22367,39.75588
32.70900,8.03093,40.54331
32.73100,9.66809,41.53669
32.74300,10.47103,41.69296
32.76500,11.84665,42.03212
32.78700,13.32239,43.06079
32.79900,14.06717,42.94818
32.82100,15.44358,42.95240
32.83300,16.28046,43.07384
32.85500,17.78888,43.31997
32.86700,18.63121,43.23588
32.88900,20.07129,42.74323
32.91100,21.44577,42.29136
32.92300,22.18431,42.23391
32.94500,23.46849,42.17656
32.95700,24.07576,42.14665
32.97900,25.01120,41.98789
32.99100,25.43886,41.89668
33.01300,26.01010,41.82852
33.02500,26.37405,41.80898
33.04700,26.87243,41.51487
33.06900,27.11477,40.97516
33.08100,27.12965,40.70780
33.10300,27.25520,40.64657
33.11500,27.27773,40.75838
33.13700,27.12991,40.77045
33.14900,26.93342,40.72402
33.17100,26.67215,40.85895
33.19300,26.65251,41.11371
33.20500,26.58745,41.30882
33.22700,26.28018,41.76031
33.23900,26.10147,41.90692
33.26100,25.56362,42.08621
33.27300,25.37302,42.25594
33.29500,24.93965,42.52915
33.30700,24.62319,42.43604
33.32900,24.00850,42.68373
33.35100,23.25069,43.03349
33.36300,22.76371,43.19163
33.38500,21.69178,43.41720
33.39700,21.05243,43.48431
33.41900,19.80687,43.77509
33.43100,19.14902,43.87155
33.45300,17.95165,43.97358
33.47500,16.73548,44.01065
33.48700,16.01911,43.95174
33.50900,14.63687,44.00233
33.52100,13.82035,44.01374
33.54300,12.36870,43.96613
33.55500,11.63316,43.95545
33.57700,10.06388,44.33431
33.59900,8.30591,44.82390
33.61100,7.29890,45.27006
33.63300,5.30987,46.30022
33.64500,4.33285,46.70060
33.66700,2.73204,47.31022
33.67900,1.97263,47.35603
33.70100,0.09374,47.48557
33.71300,-0.95479,47.43986
33.73500,-2.87155,47.40399
33.75700,-4.42751,47.10467
33.76900,-5.23202,46.96881
33.79100,-6.67832,46.69379
33.80300,-7.46090,46.61093
33.82500,-8.81550,46.48095
33.84200,-9.78393,46.32372
33.85428,-10.48744,46.09049
33.87600,-11.70604,45.53120
33.89800,-12.83168,44.88205
33.91000,-13.52653,44.60502
33.93200,-14.95248,44.19294
33.94400,-15.63863,43.96117
33.96600,-16.69172,43.17879
33.97800,-17.15353,42.67832
34.00000,-18.15618,42.01078
34.02200,-19.45413,41.85011
34.03400,-20.13138,41.61634
34.05600,-21.11674,41.10983
34.06800,-21.63979,40.89912
34.09000,-22.77368,40.68729
34.10200,-23.35666,40.50787
34.12400,-24.26882,40.04010
34.14600,-25.26575,39.67887
34.15800,-25.81403,39.42601
34.18000,-26.70577,38.99238
34.19200,-27.01953,38.70672
34.21400,-27.46810,38.13144
34.22600,-27.84393,37.94603
34.24800,-28.68363,37.83176
34.26000,-29.02090,37.70012
34.28200,-29.46437,37.19296
34.30400,-29.72067,36.76858
34.31600,-29.90072,36.56394
34.33800,-30.18416,36.27540
34.35000,-30.33999,36.06106
34.37200,-30.50836,35.54638
34.39400,-30.70333,35.13304
34.40600,-30.72851,34.97559
34.42800,-30.75995,34.69124
34.44000,-30.69976,34.43539
34.46200,-30.69064,33.90061
34.47400,-30.61679,33.64878
34.49600,-30.63710,32.93289
34.50800,-30.52154,32.87758
34.53000,-30.37221,32.77847
34.55200,-30.11580,32.38938
34.56400,-29.96689,32.13067
34.58600,-29.70463,31.79565
34.59800,-29.50932,31.50056
34.62000,-29.22415,30.91466
34.63200,-29.11126,30.59236
34.65400,-28.78378,29.86374
34.66600,-28.57214,29.52862
34.68800,-28.11133,28.91997
34.71000,-27.67571,28.25720
34.72200,-27.48265,27.87462
34.74400,-27.28374,27.12709
34.75600,-27.09617,26.57395
34.77800,-26.72864,25.66556
34.79000,-26.49198,25.20845
34.81200,-25.94306,24.37555
34.83400,-25.25473,23.38299
34.84600,-24.89098,22.90322
34.86800,-24.17481,22.12470
34.88000,-23.67559,21.67673
34.90200,-22.82426,20.93692
34.91400,-22.32424,20.44902
34.93600,-21.35934,19.58348
34.94800,-20.76165,18.49443
34.97000,-19.41196,17.59742
34.99200,-18.63348,16.88182
35.00400,-18.15117,16.47876
35.02600,-17.16430,15.54394
35.03800,-16.61713,14.97177
35.06000,-15.57055,13.86813
35.07200,-14.99894,13.02886
35.09400,-13.86881,10.84156
35.11600,-12.77216,8.24914
35.12800,-12.27340,6.02483
35.15000,-11.28949,4.42085
35.16200,-10.81061,3.57341
35.18400,-10.14735,1.45875
35.19600,-9.84180,0.27124
35.21800,-9.38765,-1.33989
35.24000,-8.76543,-3.01451
35.25200,-8.31516,-3.80687
35.27400,-7.38030,-5.24739
35.28600,-6.82939,-6.02097
35.30800,-6.01637,-7.89921
35.32000,-5.54623,-9.00089
35.34200,-4.80202,-10.42191
35.35400,-4.44763,-11.14527
35.37600,-3.70579,-12.57494
35.39800,-3.00218,-15.14424
35.41000,-2.65218,-16.83369
35.43200,-1.91388,-19.96446
35.44400,-1.56986,-21.82437
35.46600,-0.97635,-24.04737
35.47800,-0.45286,-25.61671
35.50000,0.48191,-28.69604
35.52200,1.22739,-32.67820
35.53400,1.58501,-33.97232
35.55600,2.78218,-36.39970
35.56800,3.35654,-37.56564
35.59000,4.02576,-39.30891
35.60200,4.68978,-39.72396
35.62400,5.56826,-41.68462
35.63600,6.20750,-42.19543
35.65800,7.12612,-42.97210
35.68000,7.96381,-43.28978
35.69200,8.59069,-43.60962
35.71400,9.63354,-44.06487
35.72600,10.09522,-44.28779
35.74800,10.94490,-45.09158
35.76000,11.43023,-45.49516
35.78200,12.09103,-46.13868
35.80400,12.88867,-46.55309
35.81600,13.33447,-46.78520
35.84300,14.41571,-47.31199
35.85500,14.79663,-47.52785
35.86700,14.93786,-47.52313
35.88900,15.13273,-47.22262
35.90100,15.08189,-46.50915
35.92300,14.70063,-44.56308
35.94500,14.50290,-42.95424
35.95700,14.42167,-42.51598
35.97900,14.19380,-42.07633
35.99100,14.00926,-42.07260
36.01300,13.60399,-42.11603
36.02500,13.38507,-42.39585
36.04700,13.12635,-43.29387
36.06900,12.57590,-44.22981
36.08100,12.36327,-44.89749
36.10300,11.93565,-45.88078
36.11500,11.72210,-46.26393
36.13700,11.21202,-46.99443
36.14900,10.94037,-47.28978
36.17100,10.40208,-48.10109
36.19300,9.80735,-48.55679
36.20500,9.35987,-48.69949
36.22700,8.53587,-48.79176
36.23900,7.97548,-48.66574
36.26100,6.93235,-48.86998
36.27300,6.12533,-48.85705
36.29500,4.91638,-48.58434
36.30700,4.15281,-48.42104
36.32900,2.67029,-48.02340
36.35100,1.24292,-47.72382
36.36300,0.43903,-47.52100
36.38500,-1.11350,-46.82833
36.39700,-1.87925,-46.40807
36.41900,-2.98179,-45.99385
36.43100,-3.65645,-45.70671
36.45300,-4.50767,-45.43324
36.47500,-5.66673,-44.51397
36.48700,-6.17990,-43.67315
36.50900,-6.72276,-42.18639
36.52100,-6.76765,-41.17152
36.54300,-6.99416,-39.20932
36.55500,-7.13107,-38.34251
36.57700,-7.34183,-36.61895
36.58929,-7.72630,-35.70814
36.61100,-8.37371,-34.03236
36.63300,-8.88586,-32.92708
36.64500,-9.16170,-32.62474
36.66700,-9.82437,-31.99265
36.67900,-10.20128,-31.57170
36.70100,-10.95525,-30.76812
36.71300,-11.37050,-30.50545
36.73500,-12.09944,-30.20022
36.75700,-13.03161,-29.88765
36.76900,-13.52054,-29.66615
36.79100,-14.51129,-29.22574
36.80300,-15.00699,-28.82434
36.82500,-15.79312,-28.00674
36.83700,-16.24006,-27.43039
36.85900,-16.82936,-26.37089
36.88100,-17.35109,-25.61156
36.89300,-17.63981,-25.22471
36.91500,-18.16552,-24.12696
36.92700,-18.50877,-23.45967
36.94900,-19.10976,-22.33141
36.96100,-19.31882,-21.61723
36.98300,-19.81470,-20.30995
36.99500,-20.05758,-19.55674
37.01700,-20.55900,-18.23111
37.03900,-20.99541,-17.34101
37.05100,-21.12584,-17.01616
37.07300,-21.24479,-16.38912
37.08500,-21.16509,-16.06763
37.10700,-20.81535,-15.56197
37.12900,-20.49823,-15.20293
37.14100,-20.13339,-14.96343
37.16300,-19.30273,-14.42452
37.17500,-18.76315,-13.90766
37.19700,-17.63932,-12.64814
37.20900,-17.05709,-11.79253
37.23100,-16.02445,-10.12545
37.24300,-15.36358,-8.96568
37.26500,-14.16262,-6.76418
37.28700,-13.19828,-3.59729
37.29900,-12.75865,-1.77258
37.32100,-12.03947,1.54769
37.33300,-11.56684,4.16967
37.35500,-10.58349,7.36829
37.36700,-10.11593,9.12942
37.38900,-9.38146,11.38120
37.40100,-8.97940,12.25872
37.42300,-8.22530,14.40280
37.44500,-7.56250,17.40304
37.45700,-7.08064,18.89479
37.47900,-6.14853,20.82495
37.49100,-5.59563,21.63558
37.51300,-4.63415,23.41129
37.52500,-4.03053,24.66071
37.54700,-2.69204,26.46518
37.56900,-1.47788,28.04260
37.58100,-0.76051,28.70112
37.60300,0.56477,29.72820
37.61500,1.37217,30.21838
37.63700,2.89862,30.69919
37.64900,3.66162,30.99494
37.67100,5.16080,31.91896
37.68328,6.01284,32.37885
37.70500,7.71520,32.96342
37.72700,9.31886,33.38756
37.73900,10.17965,33.51926
37.76100,11.67761,33.95712
37.77300,12.44165,34.16510
37.79500,13.95471,34.48093
37.80700,14.80076,34.61087
37.82900,16.32262,35.01819
37.84600,17.43369,35.31767
37.86800,18.53086,35.35322
37.88000,19.04833,35.31516
37.90200,20.04051,35.25942
37.91400,20.62435,35.27422
37.93600,21.62520,35.50180
37.94800,22.19500,35.42096
37.97000,23.25545,35.18090
37.99200,24.13755,35.16009
38.00400,24.53509,35.15705
38.02600,25.35456,35.08068
38.03800,25.86318,35.03509
38.06000,26.71017,34.84079
38.07200,27.06376,34.71212
38.09400,27.44475,34.66558
38.11600,27.56161,34.60898
38.12800,27.48509,34.48342
38.15000,27.20926,34.40713
38.16200,27.11584,34.41344
38.18400,27.09368,34.46123
38.19600,27.03072,34.46490
38.21800,26.72611,34.36298
38.23000,26.57621,34.39550
38.25200,26.18587,34.53578
38.27400,25.88405,34.54187
38.28600,25.64184,34.66622
38.30800,25.22768,34.83939
38.32000,24.95680,34.86917
38.34200,24.44410,34.99461
38.35400,24.12115,35.09171
38.37600,23.42080,35.38486
38.39800,22.84319,35.71275
38.41000,22.47669,35.77933
38.43200,21.84668,35.72992
38.44400,21.42733,35.76977
38.46600,20.61867,35.99611
38.47800,20.14252,36.07568
38.50000,19.25060,36.08039
38.52200,18.42409,36.07885
38.53400,17.91854,36.18355
38.55600,16.98802,36.48484
38.56800,16.47585,36.68566
38.59000,15.61874,36.76283
38.60200,15.09739,36.89252
38.62400,14.18383,37.18769
38.63600,13.63020,37.29100
38.65800,12.65899,37.58801
38.68000,11.66922,37.87198
38.69200,11.03584,38.03292
38.71400,10.08562,38.48309
38.72600,9.45990,38.78778
38.74800,8.31279,39.33057
38.76000,7.69472,39.53164
38.78200,6.53640,40.03592
38.80400,5.52575,40.57812
38.81600,5.07950,40.76286
38.83800,4.07752,41.19378
38.85000,3.47023,41.34625
38.87200,2.30874,41.53055
38.88400,1.67553,41.72028
38.90600,0.53157,41.99847
38.92800,-0.50088,42.15786
38.94000,-0.88864,42.05923
38.96200,-1.43357,41.93047
38.97400,-1.68456,42.07508
38.99600,-2.29759,42.15562
39.00800,-2.73348,42.00182
39.03000,-3.84696,41.86901
39.04200,-4.50013,41.80222
39.06400,-5.84921,41.60355
39.08600,-7.12146,41.58477
39.09800,-7.73864,41.53185
39.12000,-8.84398,41.32052
39.13200,-9.50286,41.21555
39.15400,-10.82591,41.15353
39.16600,-11.52752,41.10946
39.18800,-12.76898,40.92085
39.21000,-13.95978,40.63283
39.22200,-14.48577,40.34550
39.24400,-15.40500,39.64854
39.25600,-15.97685,39.42948
39.27800,-16.84710,38.86780
39.29000,-17.22916,38.39958
39.31200,-17.78187,37.61826
39.32400,-17.92113,37.37927
39.34600,-18.17652,36.98421
39.36800,-18.28555,36.07575
39.38000,-18.45028,35.73259
39.40200,-18.71239,35.22899
39.41400,-18.82755,35.00452
39.43600,-19.01553,34.46915
39.44800,-19.08055,34.04001
39.47000,-19.25931,33.01994
39.49200,-19.48967,31.65925
39.50400,-19.66148,31.23378
39.52600,-19.94183,30.60413
39.53800,-20.01056,30.10161
39.56000,-19.98214,29.02883
39.57200,-19.93028,28.33081
39.59400,-19.87872,27.13725
39.61600,-19.91188,26.01328
39.62800,-19.78888,25.13770
39.65000,-19.31283,22.87597
39.66200,-18.99182,21.41169
39.68400,-18.54506,19.20396
39.69600,-18.21169,17.79182
39.71800,-17.38128,14.76496
39.74000,-16.34912,11.53328
39.75200,-15.49416,10.18892
39.77400,-15.47663,9.53118
39.78600,-15.32106,9.25138
39.80800,-15.27229,9.12260
39.82000,-14.92828,8.54135
39.84700,-13.71336,6.75473
39.85900,-13.30269,5.73049
39.88100,-12.80656,4.49101
39.89300,-12.50221,3.62410
39.91500,-11.75307,0.64307
39.92700,-11.31205,-1.40574
39.94900,-10.68608,-5.62482
39.96100,-10.31305,-7.81829
39.98300,-9.66447,-11.01698
40.00500,-8.91731,-14.15230
40.01700,-8.51719,-15.64772
40.03900,-7.63477,-18.59053
40.05100,-7.09823,-20.17882
40.07300,-5.90579,-22.86401
40.08500,-5.34802,-24.29563
40.10700,-4.42354,-26.38883
40.11900,-3.76957,-26.81186
40.14100,-2.62424,-27.73512
40.16300,-1.48002,-28.73617
40.17500,-0.82873,-29.43855
40.19700,0.30700,-31.18830
40.20900,0.91309,-31.96721
40.23100,2.07244,-33.47359
40.24300,2.66906,-34.16986
40.26500,3.79188,-35.27810
40.27700,4.39820,-36.18925
40.29900,5.49235,-37.95961
40.32100,6.73392,-39.16341
40.33300,7.43713,-39.65654
40.35500,8.74411,-41.14845
40.36700,9.45770,-41.82722
40.38900,11.03474,-42.92912
40.41100,12.54993,-43.73236
40.42300,13.45406,-44.38189
40.44500,15.07712,-45.76036
40.45700,15.84147,-46.19481
40.47900,17.11518,-47.05211
40.49100,17.79801,-47.46879
40.51300,18.82903,-47.86308
40.52500,19.42854,-48.32219
40.54700,20.32745,-49.02184
40.56900,21.19536,-49.39375
40.58100,21.72413,-49.73292
40.60300,22.81694,-50.33071
40.61500,23.20363,-50.42706
40.63700,24.02367,-50.86478
40.64900,24.27856,-50.99941
40.67100,25.00666,-51.55379
40.68300,25.28745,-51.72907
40.70500,25.81120,-52.12854
40.72700,26.29505,-52.53191
40.73900,26.48521,-52.81373
40.76100,26.89285,-53.30785
40.77300,26.97244,-53.59369
40.79500,27.16223,-54.08911
40.80700,27.17576,-54.28439
40.82900,26.87086,-54.42535
40.85100,26.80534,-54.90380
40.86300,26.76122,-55.22455
40.88500,26.68932,-55.71091
40.89700,26.63564,-56.00528
40.91900,26.46181,-56.36871
40.93100,26.18613,-56.42279
40.95300,25.65657,-56.52808
40.96528,25.62686,-56.81730
40.98700,25.28997,-57.04446
41.00900,24.78242,-57.30698
41.02100,24.49570,-57.39524
41.04300,23.93228,-57.66522
41.05500,23.48640,-57.68442
41.07700,22.43036,-57.44553
41.08900,21.69524,-57.23911
41.11100,20.58730,-56.81664
41.13300,19.82945,-56.67064
41.14500,19.22250,-56.37714
41.16700,18.11587,-56.03611
41.17900,17.42312,-55.63297
41.20100,15.75201,-54.24695
41.21300,15.27484,-53.88720
41.23500,14.80386,-53.22833
41.25700,14.05182,-52.29884
41.26900,13.47759,-51.34203
41.29100,12.39488,-48.92717
41.30300,12.00858,-47.92179
41.32500,11.23903,-45.76783
41.33700,10.83725,-44.68816
41.35900,9.98979,-43.53587
41.37100,9.58097,-43.23214
41.39300,8.90230,-41.92289
41.41500,7.99213,-40.88929
41.42700,7.45863,-40.61203
41.44900,6.66613,-40.33505
41.46100,6.15029,-40.13179
41.48300,5.02977,-39.68668
41.49500,4.35646,-39.43546
41.51700,3.17507,-39.01103
41.53900,2.27009,-38.51368
41.55100,1.83408,-38.38708
41.57300,0.92954,-37.74681
41.58500,0.43958,-37.43266
41.60700,-0.42844,-37.26944
41.61900,-0.80711,-37.02837
41.64100,-1.59153,-36.43340
41.66300,-2.17782,-36.05272
41.67500,-2.54212,-35.70451
41.69700,-3.12178,-35.53772
41.70900,-3.47091,-35.27389
41.73100,-4.15454,-34.34304
41.74300,-4.45105,-33.97554
41.76500,-4.95125,-33.55829
41.77700,-5.20212,-33.36361
41.79900,-5.81038,-32.85344
41.82100,-6.37682,-32.18616
41.83300,-6.66147,-31.92641
41.85000,-7.04408,-31.44200
41.87200,-7.49032,-30.55459
41.88400,-7.66018,-30.13212
41.90600,-7.94362,-29.28340
41.91800,-8.08215,-28.66897
41.94000,-8.32233,-27.96642
41.96200,-8.53156,-26.70534
41.97400,-8.62170,-25.85994
41.99600,-8.62060,-24.40057
42.00800,-8.58679,-23.29467
42.03000,-8.44629,-20.79357
42.04200,-8.30064,-19.11835
42.06400,-7.99988,-16.51062
42.08600,-7.64690,-13.99817
42.09800,-7.41638,-12.63522
42.12000,-7.01537,-10.59073
42.13200,-6.80161,-9.63725
42.15400,-6.07300,-7.02588
42.16600,-5.72102,-6.12059
42.18800,-5.31671,-4.62286
42.21000,-4.82753,-2.30518
42.22200,-4.55335,-1.39397
42.24400,-3.76160,0.69699
42.25600,-3.09670,2.34256
42.27800,-1.53523,4.91192
42.29000,-0.88980,6.13514
42.31200,0.21469,9.02965
42.32400,0.76182,10.74099
42.34600,1.81415,13.67561
42.36800,3.12499,15.88667
42.38000,3.99707,16.97692
42.40200,5.57928,18.82612
42.41400,6.46459,20.32135
42.43600,8.32737,22.91888
42.44800,9.23599,23.76377
42.47000,10.62663,24.32288
42.49200,12.19987,25.62916
42.50400,13.11229,26.24521
42.52600,14.30897,26.80666
42.53800,14.87930,26.97320
42.56000,15.99750,27.31208
42.57200,16.64642,27.54570
42.59400,17.75784,27.85103
42.60628,18.30320,28.20318
42.62800,19.16626,28.80350
42.65000,20.01950,29.11239
42.66200,20.51856,29.16635
42.68400,21.51341,29.36074
42.69600,21.99071,29.66890
42.71800,22.68044,30.09299
42.73000,23.00866,30.16911
42.75200,23.67307,30.19223
42.77400,24.32254,30.46969
42.78600,24.56892,30.71240
42.80800,24.95033,31.31552
42.82000,25.12122,31.50294
42.84200,25.38256,31.71807
42.85400,25.56019,31.79527
42.87600,25.82685,32.17486
42.89800,25.95227,32.83291
42.91000,26.03717,33.29264
42.93200,26.09401,33.87994
42.94400,26.09625,34.06643
42.96600,25.93105,34.50560
42.97800,25.83518,34.73120
43.00000,25.60325,35.27771
43.01200,25.44203,35.51593
43.03400,25.24162,35.87936
43.05600,25.14037,36.23658
43.06800,24.97679,36.36823
43.09000,24.63918,36.70213
43.10200,24.44279,36.87755
43.12400,23.89806,37.24186
43.13600,23.57285,37.42884
43.15800,22.97882,37.74133
43.18000,22.43629,38.16576
43.19200,22.11738,38.42833
43.21400,21.22019,39.11008
43.22600,20.65611,39.47239
43.24800,19.59590,40.04385
43.26000,19.04329,40.25159
43.28200,18.05931,40.70989
43.30400,17.16041,41.32632
43.31600,16.57241,41.66714
43.33800,15.42242,42.43587
43.35000,14.76624,42.94061
43.37200,13.71671,43.59413
43.38400,13.11251,44.12815
43.40600,11.74106,45.15499
43.41800,10.92071,45.65436
43.44000,9.39228,46.58792
43.46200,7.88105,47.61731
43.47400,7.34748,47.96245
43.49600,6.16738,48.36777
43.50800,5.44780,48.55318
43.53000,3.95217,48.86237
43.54200,3.13615,49.06721
43.56400,1.75207,49.46449
43.58600,0.24870,49.74215
43.59800,-0.63203,49.88686
43.62000,-2.32103,50.19905
43.63200,-3.22593,50.28910
43.65400,-4.92157,50.40865
43.66600,-5.75468,50.37732
43.68800,-7.18933,50.22009
43.70000,-8.02262,50.08719
43.72200,-9.65871,49.65958
43.74400,-11.27180,48.75811
43.75600,-12.08748,48.00649
43.77800,-13.43969,46.64287
43.79000,-14.13817,46.11606
43.81200,-15.36340,45.21714
43.82400,-16.07984,44.80441
43.85100,-17.67444,44.09099
43.86300,-18.41232,43.90528
43.88500,-19.60035,43.55724
43.89700,-20.14505,43.41622
43.91900,-20.85445,43.05991
43.93100,-21.26115,42.81924
43.95300,-22.14935,42.72398
43.96500,-22.66410,42.71086
43.98700,-23.35941,42.43456
44.00900,-24.02608,42.18061
44.02100,-24.37734,42.14420
44.04300,-24.87784,41.79755
44.05500,-25.07930,41.61656
44.07700,-25.56322,41.36637
44.08900,-25.87539,41.37851
44.11100,-26.60518,41.53627
44.13300,-27.61246,41.98820
44.14500,-28.06043,42.18218
44.16700,-28.18206,41.65102
44.17900,-27.86600,40.93609
44.20100,-27.58118,40.22245
44.21300,-27.65964,40.17645
44.23500,-27.90447,39.92865
44.24728,-27.90354,39.66632
44.26900,-27.58719,38.85893
44.29100,-26.89731,37.92868
44.30300,-26.54325,37.37276
44.32500,-26.05897,36.61924
44.33700,-25.74925,36.11955
44.35900,-24.96206,35.06405
44.37100,-24.57197,34.47192
44.39300,-22.57681,32.09255
44.41500,-22.02250,30.92250
44.42700,-21.63910,30.13450
44.44900,-20.47045,27.59339
44.46100,-19.61578,25.97188
44.48300,-18.38012,24.12832
44.49500,-17.78264,22.52999
44.51700,-16.66955,19.08323
44.53900,-15.55685,15.88179
44.55100,-14.93469,14.31797
44.57300,-13.86937,10.94135
44.58500,-13.35627,9.05839
44.60700,-12.57226,7.25059
44.61900,-12.35852,6.21558
44.64100,-11.63865,4.07559
44.65300,-11.09326,3.40150
44.67500,-10.47999,1.53994
44.69700,-9.95269,-0.67069
44.70900,-9.47947,-1.75875
44.73100,-8.88757,-4.78553
44.74300,-8.60860,-5.90555
44.76500,-7.91691,-6.95395
44.77700,-7.51528,-7.67360
44.79900,-6.75539,-9.86102
44.82100,-5.97779,-11.96732
44.83300,-5.62700,-13.19482
44.85500,-4.92705,-15.37426
44.86700,-4.51154,-16.34812
44.88900,-3.72901,-18.16387
44.90100,-3.26183,-19.49344
44.92300,-2.34537,-21.44010
44.94500,-1.36012,-23.00239
44.95700,-0.81855,-23.71459
44.97900,0.26699,-25.17025
44.99100,0.88530,-25.99078
45.01300,2.02617,-27.95078
45.02500,2.63321,-28.84603
45.04700,3.57431,-30.69790
45.06900,4.53662,-32.09921
45.08100,5.14126,-33.01657
45.10300,6.19520,-34.34178
45.11500,6.84902,-35.20348
45.13700,7.93489,-36.64781
45.14900,8.54590,-37.34755
45.17100,9.54945,-38.45964
45.18300,10.02567,-39.09198
45.20500,11.03734,-39.93683
45.22700,11.87622,-40.72028
45.23900,12.32476,-41.18217
45.26100,12.95017,-41.93438
45.27300,13.27419,-42.28783
45.29500,13.82185,-43.02328
45.30700,14.10441,-43.32729
45.32900,14.65153,-44.23117
45.34128,14.95233,-44.71180
45.36300,15.43806,-45.41825
45.38500,15.86031,-45.79597
45.39700,16.18094,-46.23721
45.41900,16.68287,-47.00051
45.43100,16.89194,-47.31839
45.45300,17.36075,-47.76617
45.47500,17.96253,-48.30924
45.48700,18.23051,-48.50566
45.50900,18.83086,-49.06108
45.52100,19.22431,-49.32944
45.54300,19.49591,-49.40407
45.55500,19.62472,-49.54969
45.57700,19.87986,-49.77391
45.58900,19.93731,-49.86809
45.61100,19.92239,-49.78660
45.63300,19.95662,-49.89311
45.64500,19.91833,-49.92924
45.66700,19.75845,-50.06692
45.67900,19.66042,-50.13863
45.70100,19.30406,-50.21796
45.71300,18.92064,-50.13033
45.73500,18.17588,-50.02290
45.74700,17.81852,-49.91254
45.76900,17.37136,-50.07706
45.79100,16.88196,-49.98988
45.80300,16.64822,-50.07072
45.82500,15.99444,-50.16256
45.83700,15.52065,-50.16330
45.85400,14.85450,-50.10249
45.87600,13.96748,-50.24672
45.88828,13.49895,-50.20549
45.91000,12.66778,-49.94933
45.93200,12.10196,-49.99886
45.94400,11.68393,-49.83739
45.96600,10.55983,-49.51978
45.97800,10.09288,-49.31111
46.00000,9.36239,-48.73244
46.01200,8.91480,-48.38879
46.03400,8.17649,-47.76168
46.05600,7.39018,-46.95497
46.06800,6.97257,-46.61583
46.09000,6.40942,-46.12154
46.10200,6.03713,-45.70936
46.12400,5.31182,-44.88630
46.13600,4.93743,-44.56718
46.15800,3.98833,-44.07655
46.18000,2.44862,-43.05285
46.19200,1.35496,-42.17951
46.21400,-0.34356,-40.32682
46.22600,-0.98474,-39.36244
46.24800,-1.83312,-38.30566
46.26000,-2.39571,-37.43345
46.28200,-3.70021,-35.75512
46.30400,-5.26504,-33.90557
46.31600,-5.91757,-32.83986
46.33800,-6.62117,-32.06730
46.35000,-6.98720,-31.85799
46.37200,-7.65081,-31.39747
46.38400,-8.16250,-31.07213
46.40600,-9.54559,-29.99195
46.42800,-10.36024,-28.39298
46.44000,-10.71138,-27.87401
46.46200,-11.39482,-27.29301
46.47400,-12.09393,-26.09095
46.49600,-12.81725,-24.31646
46.50800,-13.19602,-23.09499
46.53000,-13.71622,-20.56587
46.54200,-13.78831,-19.43612
46.56400,-13.89614,-17.83762
46.58600,-13.97751,-15.62323
46.59800,-14.11656,-14.75860
46.62000,-14.33800,-13.33374
46.63200,-14.36512,-12.68834
46.65400,-14.25823,-11.61819
46.66600,-14.10381,-11.39322
46.68800,-13.76456,-10.62028
46.70000,-13.62033,-10.22973
46.72200,-13.42477,-9.65331
46.74400,-13.11064,-8.17189
46.75600,-12.86154,-7.29766
46.77800,-12.34360,-4.97102
46.79000,-12.09279,-3.91319
46.81200,-11.78733,-1.33798
46.82400,-11.66602,1.00822
46.84600,-11.34357,6.54201
46.86800,-10.90478,13.20595
46.88000,-10.64966,16.99255
46.90200,-10.33251,22.35040
46.91400,-10.43385,23.80138
46.93600,-11.16705,25.12809
46.94800,-11.42338,25.38513
46.97000,-11.35860,25.58709
46.98200,-11.11806,25.82564
47.00400,-10.60593,26.67589
47.02600,-10.07175,27.93750
47.03800,-9.77211,28.54076
47.06000,-9.03768,29.62967
47.07200,-8.51209,29.98754
47.09400,-7.49426,30.50225
47.10600,-6.90984,30.87232
47.12800,-5.74011,31.78400
47.15000,-4.63570,33.01591
47.16200,-4.05637,33.77792
47.18400,-2.76825,35.45818
47.19600,-1.88494,36.45349
47.21800,-0.44001,37.71523
47.23000,0.25116,38.41794
47.25200,1.93701,39.91609
47.27400,3.85679,41.40713
47.28600,4.66516,41.80581
47.30800,5.78278,42.70690
47.32000,6.54632,43.30731
47.34200,8.37028,44.74924
47.35400,9.45890,45.38882
47.37600,11.35089,45.95063
47.38800,12.17432,45.98461
47.41000,13.47955,45.70525
47.43200,14.66507,45.44403
47.44400,15.04267,44.71088
47.46600,15.25514,42.77487
47.47800,15.22523,41.85550
47.50000,15.58875,41.05439
47.52200,16.14503,41.01707
47.53400,16.68299,41.23758
47.55600,17.84729,41.68886
47.56800,18.45243,41.71043
47.59000,19.22231,41.70601
47.60200,19.50849,41.75558
47.62400,19.85683,41.74355
47.63600,20.01170,41.57904
47.65800,20.25788,41.62170
47.68000,20.61776,41.86072
47.69200,20.89146,42.05689
47.71400,21.30441,42.09595
47.72600,21.50000,42.07896
47.74800,21.82985,42.36560
47.76000,22.06376,42.74556
47.78200,22.34070,43.33533
47.79400,22.51318,43.60439
47.81600,22.82432,44.15783
47.83800,23.07895,44.37670
47.85500,23.33927,44.51430
47.86700,23.48795,44.54169
47.88900,23.83021,45.01412
47.90100,23.91765,45.38131
47.92300,23.99518,45.96830
47.93500,24.17643,46.20730
47.95700,24.45718,46.48208
47.97900,24.77602,47.35623
47.99100,24.80904,47.58734
48.01300,24.80185,47.94885
48.02500,24.77560,48.31385
48.04700,24.85891,49.13634
48.05900,24.88630,49.63019
48.08100,24.75271,50.28077
48.10300,24.63208,50.72705
48.11500,24.45891,51.06195
48.13700,24.03546,51.80008
48.14900,23.71486,52.16277
48.17100,23.32819,53.06534
48.18300,23.14006,53.66923
48.20500,22.67920,54.58712
48.22700,21.75561,55.26244
48.23900,21.26005,55.73000
48.26100,19.88381,56.73246
48.27300,19.19401,57.23249
48.29500,18.32403,57.99139
48.30700,18.10383,58.74154
48.32900,17.81092,60.32888
48.34100,17.71882,61.14335
48.36300,17.22276,62.13968
48.38500,16.27057,62.74284
48.39700,15.54590,63.09957
48.41900,14.24913,63.94507
48.43100,13.35772,64.34425
48.45300,11.37536,64.76257
48.46500,10.36408,65.07957
48.48700,8.41262,65.26172
48.50900,6.26763,65.38428
48.52100,4.87533,65.50333
48.54300,2.22444,65.57040
48.55500,0.71403,65.52254
48.57700,-1.60468,65.15348
48.58900,-2.77866,65.07454
48.61100,-5.00422,64.87666
48.62328,-6.32256,64.57870
48.64500,-8.82576,64.08612
48.66700,-11.27111,63.55577
48.67900,-12.38124,63.23286
48.70100,-14.20819,62.59895
48.71300,-15.18007,62.38795
48.73500,-16.95254,62.03173
48.74700,-18.07934,61.77294
48.76900,-19.98387,61.12171
48.79100,-21.89884,60.70907
48.80300,-22.74965,60.33839
48.82500,-24.04126,59.35087
48.83700,-24.88972,58.95193
48.85900,-26.60778,58.49127
48.87100,-27.23549,58.11681
48.89300,-28.24955,57.15632
48.91500,-29.03799,56.20686
48.92700,-29.47561,55.72006
48.94900,-30.03666,54.72352
48.96100,-30.36072,54.28715
48.98300,-30.71822,53.49908
48.99500,-30.72191,52.93084
49.01700,-30.87893,51.99596
49.02900,-30.81194,51.52027
49.05100,-30.79942,50.81497
49.07300,-30.43577,49.92717
49.08500,-30.21039,49.55495
49.10700,-29.82905,49.00972
49.11900,-29.64530,48.67495
49.14100,-29.05453,48.06417
49.16300,-28.33132,47.60542
49.17500,-27.85937,47.28152
49.19700,-27.23532,46.74718
49.20900,-26.95514,46.47791
49.23100,-26.67100,46.28425
49.24300,-26.46845,46.13462
49.26500,-26.07285,45.72802
49.27700,-25.74016,45.35096
49.29900,-25.23021,44.71935
49.32100,-24.85264,44.19254
49.33300,-24.65014,43.89248
49.35500,-24.14977,43.31090
49.36700,-23.70938,42.82690
49.38900,-23.15720,42.08170
49.40100,-22.93381,41.77621
49.42300,-22.34644,40.78424
49.44500,-21.57785,39.72541
49.45700,-21.17086,39.08549
49.47900,-20.49403,37.91654
49.49100,-20.10544,37.23381
49.51300,-19.27780,35.83299
49.52500,-18.79748,35.05558
49.54700,-17.87428,33.63068
49.55900,-17.40101,32.88157
49.58100,-16.59097,31.64829
49.60300,-15.72170,30.39698
49.61500,-15.20075,29.60622
49.63700,-14.21325,27.87856
49.64900,-13.70456,26.99471
49.67100,-12.68395,25.62413
49.68300,-12.08742,24.79163
49.70500,-11.09098,23.09084
49.71700,-10.53739,22.19630
49.73900,-9.50898,20.87872
49.76100,-8.53832,19.70748
49.77300,-8.00511,18.95150
49.79500,-7.00396,17.17214
49.80700,-6.50571,16.38556
49.82900,-5.47899,15.17298
49.85600,-4.15933,13.28124
49.86800,-3.55644,12.39952
49.88000,-2.90609,11.08274
49.90200,-1.67144,7.69635
49.91400,-1.06416,5.87096
49.93600,-0.02417,1.59084
49.94800,0.48504,-0.55116
49.97000,1.31053,-5.75949
49.98200,1.77951,-8.37297
50.00400,2.72535,-12.85686
50.02600,3.73680,-17.86605
50.03800,4.30447,-19.99870
50.06000,5.56784,-22.46930
50.07200,6.26921,-23.61361
50.09400,7.56707,-27.23494
50.11600,8.74427,-30.11146
50.12800,9.31047,-31.71138
50.15000,10.10771,-34.02125
50.16200,10.34930,-34.73943
50.18400,10.74577,-35.14182
50.19600,11.22005,-35.72987
50.21800,12.41952,-37.52274
50.23000,13.18934,-38.67651
50.25200,14.55118,-41.22993
50.27400,15.92069,-43.79336
50.28600,16.51285,-44.64292
50.30800,17.36287,-45.13286
50.32000,17.86916,-45.29235
50.34200,18.96213,-46.30868
50.35400,19.47612,-46.86804
50.37600,20.24729,-47.74533
50.39800,21.35241,-49.22888
50.41000,21.91416,-50.13468
50.43200,22.83811,-51.92620
50.44400,23.24614,-52.72515
50.46600,24.07212,-54.10595
50.47800,24.57328,-54.91145
50.50000,25.39416,-55.90036
50.51200,25.48002,-56.20733
50.53400,25.15076,-56.87492
50.55600,25.35294,-58.36594
50.56800,25.64652,-59.20608
50.59000,25.82529,-60.30191
50.60200,25.87412,-60.88357
50.62400,26.05179,-62.27341
50.63600,26.10389,-63.08235
50.65800,26.14275,-64.06073
50.68000,26.46497,-65.20768
50.69200,26.33976,-65.61942
50.71400,25.71471,-66.20918
50.72600,25.29882,-66.26363
50.74800,25.23651,-66.73119
50.76000,25.08544,-66.92590
50.78200,24.78954,-67.36397
50.79400,24.49660,-67.56174
50.81600,23.85189,-67.78864
50.83800,22.63241,-67.60590
50.85000,21.97189,-67.77785
50.87200,20.43942,-68.09462
50.88400,19.76036,-67.97119
50.90600,18.77463,-68.05773
50.91800,18.02139,-67.88110
50.94000,16.44341,-67.63133
50.96200,14.97721,-67.27320
50.97400,14.28250,-67.17450
50.99600,13.07019,-67.02311
51.00800,12.24355,-66.91183
51.03000,10.74354,-66.52118
51.04200,9.97766,-66.41586
51.06400,8.43783,-65.89198
51.07600,7.62387,-65.58511
51.09800,6.06592,-65.21626
51.12000,4.74847,-65.11502
51.13200,4.04151,-64.89616
51.15400,2.62584,-64.47316
51.16600,1.72354,-64.10799
51.18800,-0.39745,-63.53296
51.20000,-1.13489,-63.19820
51.22200,-2.55083,-62.24866
51.24400,-4.18583,-60.82541
51.25600,-5.05638,-60.03273
51.27800,-6.30364,-58.70086
51.29000,-6.78394,-58.07047
51.31200,-7.52563,-56.85215
51.32400,-7.96253,-56.27148
51.34600,-8.96501,-55.25206
51.36800,-10.00541,-54.16022
51.38000,-10.56716,-53.56106
51.40200,-11.62826,-52.95605
51.41400,-12.16411,-52.45316
51.43600,-13.06305,-51.31096
51.44800,-13.48280,-50.72087
51.47000,-14.27044,-49.79454
51.48200,-14.76358,-49.26580
51.50400,-15.55387,-47.94025
51.52600,-16.24490,-46.33574
51.53800,-16.46584,-45.69414
51.56000,-16.84493,-45.22652
51.57200,-17.03250,-44.83376
51.59400,-17.49452,-44.05465
51.60600,-17.79917,-43.59886
51.62800,-18.45632,-42.76716
51.65000,-19.06265,-42.25719
51.66200,-19.38301,-41.80880
51.68400,-19.69440,-40.86695
51.69600,-19.90031,-40.31883
51.71800,-20.30489,-39.67458
51.73000,-20.51893,-39.30153
51.75200,-21.09847,-38.85346
51.76400,-21.36278,-38.64322
51.78600,-21.62115,-38.20331
51.80800,-21.69868,-37.79667
51.82000,-21.69363,-37.53867
51.84200,-21.71988,-36.76120
51.85900,-21.76240,-36.15457
51.87100,-21.85441,-35.79282
51.89300,-22.05576,-35.20336
51.90528,-22.16374,-34.84074
51.92700,-22.21068,-34.01277
51.94900,-22.07270,-32.86830
51.96100,-21.97913,-32.16503
51.98300,-21.64881,-30.26422
51.99500,-21.44989,-29.27877
52.01700,-21.18373,-27.99506
52.03900,-20.90936,-27.04839
52.05100,-20.63496,-26.46857
52.07300,-20.09191,-25.06501
52.08500,-19.73470,-23.88609
52.10700,-19.06547,-21.80873
52.11900,-18.78634,-21.17181
52.14100,-18.18293,-19.64885
52.15300,-17.78592,-18.42809
52.17500,-16.91804,-14.82821
52.19700,-15.72156,-10.52870
52.20900,-15.20278,-8.59238
52.23100,-14.31923,-5.97163
52.24300,-13.96318,-4.41124
52.26500,-13.06202,-0.97344
52.27700,-12.54010,1.06606
52.29900,-11.59160,5.24539
52.31100,-11.11388,6.73008
52.33300,-10.31824,9.06763
52.35500,-9.71938,11.67387
52.36700,-9.37728,13.60052
52.38900,-7.95372,16.18347
52.40100,-7.05065,17.44432
52.42300,-5.75320,18.74494
52.43500,-5.12616,19.09610
52.45700,-4.18553,19.81652
52.47900,-3.18503,21.21610
52.49100,-2.57870,22.40897
52.51300,-1.26076,25.93867
52.52500,-0.47686,28.49151
52.54700,1.07345,32.57573
52.55900,1.71755,33.81970
52.58100,2.46304,35.39336
52.60300,3.36005,36.76518
52.61500,4.09113,37.78615
52.63700,5.92452,39.99089
52.64900,6.84869,40.96592
52.67100,8.37496,43.11157
52.68300,9.40851,44.71690
52.70500,11.41837,46.64837
52.71700,12.15260,47.18613
52.73900,13.56958,47.81408
52.76100,15.03879,47.88851
52.77300,15.71316,47.76086
52.79500,16.85606,47.70493
52.80700,17.56317,47.83647
52.82900,18.81718,47.96313
52.84100,19.57262,48.13328
52.86300,21.02047,48.37795
52.88500,22.00358,48.15824
52.89700,22.52660,47.91498
52.91900,23.44019,47.86760
